recording_id,time_seconds,EEG Fpz-Cz,EEG Pz-Oz
SC4001E0,0.0,5.0168498168498166e-06,-2.4673992673992548e-06
SC4001E0,0.01,-2.578754578754579e-06,1.4673992673992796e-06
SC4001E0,0.02,1.3597069597069596e-06,-4.0989010989010866e-06
SC4001E0,0.03,-2.3912087912087914e-06,-2.659340659340647e-06
SC4001E0,0.04,-5.2043956043956044e-06,-7.399267399267277e-07
SC4001E0,0.05,-7.454945054945055e-06,-1.4117216117215996e-06
SC4001E0,0.06,-8.298901098901099e-06,-9.318681318681197e-07
SC4001E0,0.07,-6.892307692307693e-06,1.8512820512820636e-06
SC4001E0,0.08,-3.704029304029304e-06,-8.358974358974236e-07
SC4001E0,0.09,-9.846153846153847e-07,-8.358974358974236e-07
SC4001E0,0.1,2.203663003663003e-06,-1.0624908424908414e-05
SC4001E0,0.11,2.016117216117216e-06,-1.3408058608058595e-05
SC4001E0,0.12,1.641025641025641e-06,-1.0816849816849804e-05
SC4001E0,0.13,-2.6725274725274728e-06,-4.290842490842479e-06
SC4001E0,0.14,-7.970695970695972e-07,-3.427106227106215e-06
SC4001E0,0.15,1.3597069597069596e-06,-3.043223443223431e-06
SC4001E0,0.16,2.8600732600732594e-06,-1.6036630036629915e-06
SC4001E0,0.17,-2.203663003663004e-06,-8.033699633699622e-06
SC4001E0,0.18,5.157509157509156e-07,-5.826373626373614e-06
SC4001E0,0.19,5.86080586080586e-06,-7.457875457875446e-06
SC4001E0,0.2,-1.7347985347985347e-06,-3.715018315018303e-06
SC4001E0,0.21,-3.0476190476190477e-06,-1.9875457875457753e-06
SC4001E0,0.22,2.8600732600732594e-06,-3.427106227106215e-06
SC4001E0,0.23,7.83003663003663e-06,-1.0720879120879108e-05
SC4001E0,0.24,2.9538461538461533e-06,-1.1488644688644675e-05
SC4001E0,0.25,-9.846153846153847e-07,-8.705494505494494e-06
SC4001E0,0.26,-1.9223443223443225e-06,-2.7553113553113434e-06
SC4001E0,0.27,-6.704761904761905e-06,-2.7553113553113434e-06
SC4001E0,0.28,-7.548717948717948e-06,-2.659340659340647e-06
SC4001E0,0.29,-4.8293040293040295e-06,6.03663003663016e-07
SC4001E0,0.3,-1.261245421245421e-05,3.962637362637375e-06
SC4001E0,0.31,-9.236630036630037e-06,-1.3157509157509035e-06
SC4001E0,0.32,-1.2331135531135532e-05,-2.563369963369951e-06
SC4001E0,0.33,-8.298901098901099e-06,-1.9875457875457753e-06
SC4001E0,0.34,-1.636336996336996e-05,-5.634432234432222e-06
SC4001E0,0.35,-2.1145787545787544e-05,-6.439560439560317e-07
SC4001E0,0.36,-2.3677655677655678e-05,1.5633699633699754e-06
SC4001E0,0.37,-2.123956043956044e-05,-7.399267399267277e-07
SC4001E0,0.38,-2.0208058608058606e-05,1.2754578754578877e-06
SC4001E0,0.39,-2.3771428571428573e-05,-5.826373626373614e-06
SC4001E0,0.4,-2.6115750915750916e-05,4.11721611721624e-07
SC4001E0,0.41,-2.5646886446886446e-05,1.5633699633699754e-06
SC4001E0,0.42,-2.6115750915750916e-05,4.346520146520159e-06
SC4001E0,0.43,-2.6678388278388277e-05,2.9069597069597193e-06
SC4001E0,0.44,-2.2833699633699634e-05,-6.813186813185585e-08
SC4001E0,0.45,-2.2458608058608057e-05,2.9069597069597193e-06
SC4001E0,0.46,-2.152087912087912e-05,5.402197802197814e-06
SC4001E0,0.47,-1.6644688644688645e-05,1.1794871794871918e-06
SC4001E0,0.48,-1.608205128205128e-05,1.7553113553113676e-06
SC4001E0,0.49,-1.1393406593406593e-05,-1.1008791208791196e-05
SC4001E0,0.5,-1.158095238095238e-05,-1.1104761904761892e-05
SC4001E0,0.51,-1.5425641025641025e-05,-1.0336996336996324e-05
SC4001E0,0.52,-1.5238095238095238e-05,-6.114285714285702e-06
SC4001E0,0.53,-1.4487912087912088e-05,-2.3714285714285596e-06
SC4001E0,0.54,-1.6644688644688645e-05,-1.6996336996336873e-06
SC4001E0,0.55,-1.711355311355311e-05,-2.179487179487167e-06
SC4001E0,0.56,-1.28e-05,3.866666666666679e-06
SC4001E0,0.57,-9.049084249084249e-06,9.875457875457997e-07
SC4001E0,0.58,-6.142124542124542e-06,4.634432234432247e-06
SC4001E0,0.59,-9.049084249084249e-06,6.99633699633712e-07
SC4001E0,0.6,-7.548717948717948e-06,7.956043956044079e-07
SC4001E0,0.61,-8.58021978021978e-06,-3.523076923076911e-06
SC4001E0,0.62,-5.485714285714286e-06,-3.427106227106215e-06
SC4001E0,0.63,-2.6725274725274728e-06,-1.0278388278388157e-06
SC4001E0,0.64,-1.9223443223443225e-06,-1.7956043956043834e-06
SC4001E0,0.65,-5.767032967032966e-06,4.2505494505494625e-06
SC4001E0,0.66,-5.954578754578754e-06,7.513553113553125e-06
SC4001E0,0.67,-4.360439560439561e-06,3.1948717948718075e-06
SC4001E0,0.68,-5.110622710622711e-06,5.5941391941392065e-06
SC4001E0,0.69,-5.954578754578754e-06,2.5230769230769354e-06
SC4001E0,0.7,-3.797802197802198e-06,6.03663003663016e-07
SC4001E0,0.71,-7.032967032967035e-07,-2.9472527472527347e-06
SC4001E0,0.72,-3.797802197802198e-06,6.03663003663016e-07
SC4001E0,0.73,-5.0168498168498166e-06,-9.318681318681197e-07
SC4001E0,0.74,-2.9538461538461537e-06,3.386813186813199e-06
SC4001E0,0.75,-1.5472527472527474e-06,3.770695970695983e-06
SC4001E0,0.76,-1.4534798534798535e-06,9.720879120879135e-06
SC4001E0,0.77,-3.235164835164835e-06,8.185347985348e-06
SC4001E0,0.78,-6.095238095238096e-07,6.361904761904774e-06
SC4001E0,0.79,-4.360439560439561e-06,3.1575091575092805e-07
SC4001E0,0.8,-3.61025641025641e-06,5.210256410256422e-06
SC4001E0,0.81,-2.484981684981685e-06,1.0835164835164958e-06
SC4001E0,0.82,-3.2820512820512836e-07,5.882051282051295e-06
SC4001E0,0.83,-8.908424908424909e-07,3.962637362637375e-06
SC4001E0,0.84,-1.3597069597069598e-06,1.384761904761906e-05
SC4001E0,0.85,-8.861538461538462e-06,1.5095238095238109e-05
SC4001E0,0.86,-1.0455677655677655e-05,1.8358241758241772e-05
SC4001E0,0.87,-7.173626373626373e-06,1.0104761904761916e-05
SC4001E0,0.88,-6.142124542124542e-06,8.665201465201478e-06
SC4001E0,0.89,-5.298168498168498e-06,3.578754578754591e-06
SC4001E0,0.9,-5.298168498168498e-06,-1.5076923076922954e-06
SC4001E0,0.91,-6.048351648351648e-06,-6.439560439560317e-07
SC4001E0,0.92,-1.1721611721611723e-06,2.6190476190476315e-06
SC4001E0,0.93,3.6102564102564096e-06,7.801465201465213e-06
SC4001E0,0.94,2.9538461538461533e-06,1.2983882783882796e-05
SC4001E0,0.95,-7.83003663003663e-06,1.0872527472527486e-05
SC4001E0,0.96,-2.6584615384615385e-05,1.2983882783882796e-05
SC4001E0,0.97,-1.4394139194139194e-05,9.33699633699635e-06
SC4001E0,0.98,-4.9183882783882785e-05,8.953113553113564e-06
SC4001E0,0.99,-6.38124542124542e-05,2.1391941391941516e-06
SC4001E0,1.0,-6.4e-05,4.2505494505494625e-06
SC4001E0,1.01,-6.39062271062271e-05,9.875457875457997e-07
SC4001E0,1.02,-6.296849816849816e-05,1.6593406593406715e-06
SC4001E0,1.03,-6.137435897435897e-05,3.0029304029304153e-06
SC4001E0,1.04,-5.9498901098901095e-05,3.962637362637375e-06
SC4001E0,1.05,-5.6310622710622705e-05,8.56923076923078e-06
SC4001E0,1.06,-5.068424908424908e-05,8.56923076923078e-06
SC4001E0,1.07,-4.8996336996337e-05,7.801465201465213e-06
SC4001E0,1.08,-3.605567765567765e-05,-2.8512820512820394e-06
SC4001E0,1.09,-3.633699633699633e-05,-5.1545787545787424e-06
SC4001E0,1.1,-2.5834432234432233e-05,-3.1391941391941272e-06
SC4001E0,1.11,-1.7582417582417584e-05,1.0835164835164958e-06
SC4001E0,1.12,-5.579487179487179e-06,8.953113553113564e-06
SC4001E0,1.13,-3.516483516483516e-06,9.241025641025654e-06
SC4001E0,1.14,9.142857142857142e-06,9.432967032967045e-06
SC4001E0,1.15,1.636336996336996e-05,5.01831501831503e-06
SC4001E0,1.16,2.5365567765567764e-05,4.442490842490855e-06
SC4001E0,1.17,3.1179487179487176e-05,-4.194871794871783e-06
SC4001E0,1.18,3.192967032967033e-05,-8.609523809523798e-06
SC4001E0,1.19,2.9304029304029302e-05,-5.3465201465201346e-06
SC4001E0,1.2,3.1554578754578756e-05,2.7838827838840117e-08
SC4001E0,1.21,3.361758241758242e-05,3.6747252747252874e-06
SC4001E0,1.22,3.8493772893772893e-05,9.624908424908439e-06
SC4001E0,1.23,3.736849816849817e-05,1.5575091575091588e-05
SC4001E0,1.24,3.586813186813187e-05,1.5383150183150196e-05
SC4001E0,1.25,3.5493040293040294e-05,2.0565567765567776e-05
SC4001E0,1.26,3.652454212454212e-05,1.3655677655677668e-05
SC4001E0,1.27,3.361758241758242e-05,1.403956043956045e-05
SC4001E0,1.28,3.474285714285714e-05,7.41758241758243e-06
SC4001E0,1.29,3.84e-05,2.6190476190476315e-06
SC4001E0,1.3,4.449523809523809e-05,4.2505494505494625e-06
SC4001E0,1.31,1.1956043956043956e-05,1.0200732600732613e-05
SC4001E0,1.32,3.052307692307692e-05,1.096849816849818e-05
SC4001E0,1.33,3.08043956043956e-05,9.528937728937741e-06
SC4001E0,1.34,3.324249084249084e-05,1.2504029304029315e-05
SC4001E0,1.35,2.977289377289377e-05,1.1832234432234445e-05
SC4001E0,1.36,3.08043956043956e-05,3.866666666666679e-06
SC4001E0,1.37,2.4615384615384616e-05,1.0680586080586094e-05
SC4001E0,1.38,1.9270329670329667e-05,1.1352380952380964e-05
SC4001E0,1.39,1.8426373626373624e-05,6.169963369963382e-06
SC4001E0,1.4,1.9926739926739927e-05,1.1352380952380964e-05
SC4001E0,1.41,1.7676190476190476e-05,1.547912087912089e-05
SC4001E0,1.42,2.067692307692308e-05,1.6630769230769243e-05
SC4001E0,1.43,2.527179487179487e-05,1.1736263736263749e-05
SC4001E0,1.44,-6.4234432234432235e-06,1.0200732600732613e-05
SC4001E0,1.45,-7.454945054945055e-06,9.912820512820525e-06
SC4001E0,1.46,-1.6832234432234432e-05,9.816849816849829e-06
SC4001E0,1.47,-3.8493772893772893e-05,5.114285714285727e-06
SC4001E0,1.48,-4.74959706959707e-05,9.875457875457997e-07
SC4001E0,1.49,-4.787106227106227e-05,1.94725274725276e-06
SC4001E0,1.5,-4.8058608058608056e-05,4.538461538461551e-06
SC4001E0,1.51,-4.74959706959707e-05,5.402197802197814e-06
SC4001E0,1.52,-4.336996336996337e-05,3.0029304029304153e-06
SC4001E0,1.53,-3.577435897435897e-05,6.169963369963382e-06
SC4001E0,1.54,-2.3115018315018313e-05,8.185347985348e-06
SC4001E0,1.55,-1.561318681318681e-05,8.56923076923078e-06
SC4001E0,1.56,-6.610989010989011e-06,9.720879120879135e-06
SC4001E0,1.57,4.36043956043956e-06,4.346520146520159e-06
SC4001E0,1.58,1.3737728937728936e-05,4.346520146520159e-06
SC4001E0,1.59,1.6832234432234432e-05,3.578754578754591e-06
SC4001E0,1.6,2.8835164835164836e-05,2.7838827838840117e-08
SC4001E0,1.61,3.6618315018315016e-05,-3.810989010988999e-06
SC4001E0,1.62,3.718095238095238e-05,-2.600732600732478e-07
SC4001E0,1.63,4.44014652014652e-05,4.826373626373638e-06
SC4001E0,1.64,4.177582417582417e-05,4.05860805860807e-06
SC4001E0,1.65,4.721465201465201e-05,3.290842490842503e-06
SC4001E0,1.66,4.7120879120879124e-05,6.169963369963382e-06
SC4001E0,1.67,4.665201465201465e-05,5.5941391941392065e-06
SC4001E0,1.68,4.524542124542125e-05,8.185347985348e-06
SC4001E0,1.69,4.674578754578754e-05,5.882051282051295e-06
SC4001E0,1.7,4.496410256410256e-05,3.4827838827838952e-06
SC4001E0,1.71,4.243223443223443e-05,-2.8512820512820394e-06
SC4001E0,1.72,4.083809523809523e-05,5.0769230769232e-07
SC4001E0,1.73,4.4870329670329666e-05,-1.641025641025518e-07
SC4001E0,1.74,3.633699633699633e-05,4.154578754578767e-06
SC4001E0,1.75,3.305494505494505e-05,1.2380952380953613e-07
SC4001E0,1.76,3.811868131868132e-05,4.634432234432247e-06
SC4001E0,1.77,2.9116483516483515e-05,5.5941391941392065e-06
SC4001E0,1.78,2.695970695970696e-05,2.1391941391941516e-06
SC4001E0,1.79,2.7428571428571425e-05,5.5941391941392065e-06
SC4001E0,1.8,1.9926739926739927e-05,2.8109890109890236e-06
SC4001E0,1.81,2.18021978021978e-05,3.962637362637375e-06
SC4001E0,1.82,1.6926007326007324e-05,7.513553113553125e-06
SC4001E0,1.83,1.6550915750915747e-05,1.0200732600732613e-05
SC4001E0,1.84,1.5425641025641025e-05,9.241025641025654e-06
SC4001E0,1.85,1.0361904761904761e-05,1.1640293040293054e-05
SC4001E0,1.86,1.5706959706959707e-05,5.6901098901099026e-06
SC4001E0,1.87,1.3175091575091573e-05,3.770695970695983e-06
SC4001E0,1.88,6.704761904761905e-06,-4.520146520146397e-07
SC4001E0,1.89,1.3643956043956043e-05,-4.386813186813175e-06
SC4001E0,1.9,1.2518681318681319e-05,-4.0029304029303905e-06
SC4001E0,1.91,1.308131868131868e-05,-1.9875457875457753e-06
SC4001E0,1.92,1.1112087912087911e-05,-6.439560439560317e-07
SC4001E0,1.93,1.701978021978022e-05,-4.0989010989010866e-06
SC4001E0,1.94,1.1956043956043956e-05,-2.9472527472527347e-06
SC4001E0,1.95,1.1768498168498167e-05,-2.0835164835164718e-06
SC4001E0,1.96,2.391208791208791e-06,-1.9875457875457753e-06
SC4001E0,1.97,1.0174358974358973e-05,-2.275457875457863e-06
SC4001E0,1.98,6.6109890109890105e-06,-2.7553113553113434e-06
SC4001E0,1.99,1.0924542124542124e-05,-4.0029304029303905e-06
SC4001E0,2.0,4.454212454212454e-06,-6.690109890109878e-06
SC4001E0,2.01,-2.6725274725274728e-06,-8.129670329670318e-06
SC4001E0,2.02,-7.970695970695972e-07,-5.826373626373614e-06
SC4001E0,2.03,-4.079120879120879e-06,-3.715018315018303e-06
SC4001E0,2.04,-1.5472527472527474e-06,-6.306227106227094e-06
SC4001E0,2.05,-5.2043956043956044e-06,-4.194871794871783e-06
SC4001E0,2.06,-2.578754578754579e-06,-8.705494505494494e-06
SC4001E0,2.07,-1.8285714285714286e-06,-9.089377289377278e-06
SC4001E0,2.08,6.048351648351648e-06,-1.2448351648351636e-05
SC4001E0,2.09,-5.860805860805861e-06,-1.4655677655677643e-05
SC4001E0,2.1,-5.485714285714286e-06,-1.8014652014652004e-05
SC4001E0,2.11,-7.173626373626373e-06,-1.475164835164834e-05
SC4001E0,2.12,3.7040293040293036e-06,-1.5135531135531124e-05
SC4001E0,2.13,-2.2974358974358975e-06,-1.2064468864468853e-05
SC4001E0,2.14,-6.704761904761905e-06,-1.3599999999999988e-05
SC4001E0,2.15,-2.2974358974358975e-06,-1.9742124542124533e-05
SC4001E0,2.16,-5.860805860805861e-06,-1.8590476190476177e-05
SC4001E0,2.17,-2.2974358974358975e-06,-1.6287179487179475e-05
SC4001E0,2.18,4.266666666666667e-06,-1.926227106227105e-05
SC4001E0,2.19,6.517216117216117e-06,-1.7630769230769216e-05
SC4001E0,2.2,3.7040293040293036e-06,-1.7054945054945043e-05
SC4001E0,2.21,4.172893772893772e-06,-9.569230769230757e-06
SC4001E0,2.22,3.6102564102564096e-06,-8.5135531135531e-06
SC4001E0,2.23,2.9538461538461533e-06,-8.225641025641014e-06
SC4001E0,2.24,1.7347985347985345e-06,-8.033699633699622e-06
SC4001E0,2.25,1.3597069597069596e-06,-3.1391941391941272e-06
SC4001E0,2.26,-1.9223443223443225e-06,-1.0720879120879108e-05
SC4001E0,2.27,-5.485714285714286e-06,-8.705494505494494e-06
SC4001E0,2.28,-3.61025641025641e-06,-2.659340659340647e-06
SC4001E0,2.29,-4.923076923076923e-06,-1.024102564102563e-05
SC4001E0,2.3,2.0583150183150183e-05,-1.5615384615384604e-05
SC4001E0,2.31,-2.6584615384615385e-05,2.5230769230769354e-06
SC4001E0,2.32,-2.123956043956044e-05,-1.4117216117215996e-06
SC4001E0,2.33,-4.365128205128205e-05,-1.494358974358973e-05
SC4001E0,2.34,-2.574065934065934e-05,-1.235238095238094e-05
SC4001E0,2.35,-5.893626373626373e-05,-1.3504029304029292e-05
SC4001E0,2.36,-6.54065934065934e-05,-1.3408058608058595e-05
SC4001E0,2.37,-6.784468864468865e-05,-1.590329670329669e-05
SC4001E0,2.38,-5.809230769230769e-05,-1.8398534798534785e-05
SC4001E0,2.39,-4.168205128205128e-05,-2.070183150183149e-05
SC4001E0,2.4,-6.85010989010989e-05,-1.2256410256410243e-05
SC4001E0,2.41,-5.8561172161172156e-05,-1.7726739926739917e-05
SC4001E0,2.42,-7.375238095238094e-05,-1.8782417582417572e-05
SC4001E0,2.43,-4.787106227106227e-05,-2.2717216117216106e-05
SC4001E0,2.44,-5.518534798534798e-05,-4.866666666666654e-06
SC4001E0,2.45,-5.021538461538461e-05,-1.907032967032966e-05
SC4001E0,2.46,-4.543296703296703e-05,-1.0816849816849804e-05
SC4001E0,2.47,-3.821245421245421e-05,-9.569230769230757e-06
SC4001E0,2.48,-3.4367765567765565e-05,-3.715018315018303e-06
SC4001E0,2.49,-2.3583882783882786e-05,-1.043296703296702e-05
SC4001E0,2.5,-1.0174358974358973e-05,-6.4021978021977896e-06
SC4001E0,2.51,-2.1427106227106223e-05,-6.2102564102563974e-06
SC4001E0,2.52,-1.7582417582417584e-05,-1.3695970695970684e-05
SC4001E0,2.53,-1.0174358974358973e-05,-1.2448351648351636e-05
SC4001E0,2.54,-1.5800732600732602e-05,-9.281318681318669e-06
SC4001E0,2.55,-1.1487179487179487e-05,-4.48278388278387e-06
SC4001E0,2.56,-3.422710622710623e-06,-1.0816849816849804e-05
SC4001E0,2.57,7.454945054945055e-06,-6.018315018315006e-06
SC4001E0,2.58,-3.399267399267399e-05,-1.139267399267398e-05
SC4001E0,2.59,-1.2706227106227106e-05,-1.3887912087912075e-05
SC4001E0,2.6,-1.7957509157509158e-05,-1.6287179487179475e-05
SC4001E0,2.61,-2.067692307692308e-05,-1.0624908424908414e-05
SC4001E0,2.62,-1.88014652014652e-05,-1.1008791208791196e-05
SC4001E0,2.63,-1.5894505494505494e-05,-6.114285714285702e-06
SC4001E0,2.64,-3.380512820512821e-05,-4.674725274725262e-06
SC4001E0,2.65,-4.937142857142857e-05,-9.185347985347973e-06
SC4001E0,2.66,-4.974652014652014e-05,-1.2197802197802074e-06
SC4001E0,2.67,-5.5091575091575095e-05,4.11721611721624e-07
SC4001E0,2.68,-5.3778754578754575e-05,4.346520146520159e-06
SC4001E0,2.69,-5.1246886446886445e-05,-5.479853479853357e-07
SC4001E0,2.7,-4.562051282051282e-05,1.1794871794871918e-06
SC4001E0,2.71,-3.239853479853479e-05,-3.043223443223431e-06
SC4001E0,2.72,-2.5084249084249082e-05,-2.9472527472527347e-06
SC4001E0,2.73,-2.2833699633699634e-05,-5.058608058608046e-06
SC4001E0,2.74,-4.688644688644705e-08,-3.1391941391941272e-06
SC4001E0,2.75,9.142857142857142e-06,-2.7553113553113434e-06
SC4001E0,2.76,1.7394871794871793e-05,-1.4117216117215996e-06
SC4001E0,2.77,2.424029304029304e-05,-6.2102564102563974e-06
SC4001E0,2.78,3.2586080586080583e-05,-1.0816849816849804e-05
SC4001E0,2.79,3.4836630036630035e-05,-1.5135531135531124e-05
SC4001E0,2.8,4.3932600732600734e-05,-4.96263736263735e-06
SC4001E0,2.81,4.702710622710622e-05,-4.0029304029303905e-06
SC4001E0,2.82,4.618315018315018e-05,1.125641025641027e-05
SC4001E0,2.83,4.083809523809523e-05,-5.479853479853357e-07
SC4001E0,2.84,4.5808058608058605e-05,7.956043956044079e-07
SC4001E0,2.85,4.5526739926739926e-05,-2.0835164835164718e-06
SC4001E0,2.86,1.711355311355311e-05,5.0769230769232e-07
SC4001E0,2.87,-2.578754578754579e-06,8.91575091575104e-07
SC4001E0,2.88,-1.1112087912087911e-05,2.8109890109890236e-06
SC4001E0,2.89,-2.545934065934066e-05,-4.520146520146397e-07
SC4001E0,2.9,-4.046300366300366e-05,9.875457875457997e-07
SC4001E0,2.91,-4.533919413919414e-05,-2.275457875457863e-06
SC4001E0,2.92,-3.868131868131868e-05,-1.7956043956043834e-06
SC4001E0,2.93,-3.5961904761904764e-05,1.5633699633699754e-06
SC4001E0,2.94,-2.827252747252747e-05,-3.810989010988999e-06
SC4001E0,2.95,-4.454212454212454e-06,-3.331135531135519e-06
SC4001E0,2.96,1.1393406593406593e-05,-6.018315018315006e-06
SC4001E0,2.97,2.602197802197802e-05,-4.866666666666654e-06
SC4001E0,2.98,4.224468864468864e-05,-2.3714285714285596e-06
SC4001E0,2.99,4.4682783882783876e-05,-1.3157509157509035e-06
SC4001E0,3.0,5.312234432234432e-05,-5.058608058608046e-06
SC4001E0,3.01,5.8842490842490835e-05,-6.594139194139182e-06
SC4001E0,3.02,6.371868131868131e-05,-1.1008791208791196e-05
SC4001E0,3.03,6.39062271062271e-05,-1.0720879120879108e-05
SC4001E0,3.04,6.39062271062271e-05,-3.043223443223431e-06
SC4001E0,3.05,6.165567765567766e-05,-2.659340659340647e-06
SC4001E0,3.06,5.893626373626373e-05,-1.7956043956043834e-06
SC4001E0,3.07,5.415384615384615e-05,3.962637362637375e-06
SC4001E0,3.08,5.293479853479853e-05,-1.7956043956043834e-06
SC4001E0,3.09,4.44014652014652e-05,-5.1545787545787424e-06
SC4001E0,3.1,2.9304029304029302e-05,-3.715018315018303e-06
SC4001E0,3.11,7.079853479853479e-06,-1.2197802197802074e-06
SC4001E0,3.12,-2.1614652014652013e-05,1.3714285714285837e-06
SC4001E0,3.13,-4.871501831501831e-05,4.11721611721624e-07
SC4001E0,3.14,-4.843369963369963e-05,6.361904761904774e-06
SC4001E0,3.15,-5.162197802197802e-05,9.432967032967045e-06
SC4001E0,3.16,-3.811868131868132e-05,1.0584615384615396e-05
SC4001E0,3.17,-2.2552380952380952e-05,6.8417582417582545e-06
SC4001E0,3.18,-2.7897435897435898e-05,3.6747252747252874e-06
SC4001E0,3.19,2.9538461538461533e-06,1.1794871794871918e-06
SC4001E0,3.2,2.574065934065934e-05,4.922344322344335e-06
SC4001E0,3.21,3.736849816849817e-05,2.5230769230769354e-06
SC4001E0,3.22,4.308864468864469e-05,3.1948717948718075e-06
SC4001E0,3.23,5.1434432234432236e-05,3.578754578754591e-06
SC4001E0,3.24,5.387252747252747e-05,3.770695970695983e-06
SC4001E0,3.25,5.302857142857142e-05,3.1575091575092805e-07
SC4001E0,3.26,6.193699633699633e-05,1.7553113553113676e-06
SC4001E0,3.27,6.024908424908424e-05,1.2754578754578877e-06
SC4001E0,3.28,5.434139194139194e-05,3.290842490842503e-06
SC4001E0,3.29,4.44014652014652e-05,-1.641025641025518e-07
SC4001E0,3.3,4.496410256410256e-05,6.073992673992687e-06
SC4001E0,3.31,-1.8613919413919414e-05,6.361904761904774e-06
SC4001E0,3.32,-4.102564102564103e-05,3.0029304029304153e-06
SC4001E0,3.33,-3.6618315018315016e-05,1.94725274725276e-06
SC4001E0,3.34,-5.0121611721611716e-05,1.0104761904761916e-05
SC4001E0,3.35,-4.130695970695971e-05,5.882051282051295e-06
SC4001E0,3.36,-2.3396336996336995e-05,8.281318681318694e-06
SC4001E0,3.37,-1.2706227106227106e-05,1.1064468864468876e-05
SC4001E0,3.38,7.923809523809523e-06,6.8417582417582545e-06
SC4001E0,3.39,2.7147252747252746e-05,5.786080586080598e-06
SC4001E0,3.4,2.4709157509157508e-05,5.306227106227118e-06
SC4001E0,3.41,4.083809523809523e-05,2.2351648351648477e-06
SC4001E0,3.42,4.637069597069597e-05,-2.563369963369951e-06
SC4001E0,3.43,5.293479853479853e-05,-4.578754578754567e-06
SC4001E0,3.44,5.5091575091575095e-05,-3.523076923076911e-06
SC4001E0,3.45,6.446886446886446e-05,2.9069597069597193e-06
SC4001E0,3.46,5.6591941391941384e-05,5.882051282051295e-06
SC4001E0,3.47,5.7154578754578755e-05,8.089377289377302e-06
SC4001E0,3.48,4.909010989010989e-05,8.37728937728939e-06
SC4001E0,3.49,6.896996336996336e-05,4.922344322344335e-06
SC4001E0,3.5,9.330402930402931e-06,8.953113553113564e-06
SC4001E0,3.51,2.433406593406593e-05,1.0008791208791221e-05
SC4001E0,3.52,2.5084249084249082e-05,1.336776556776558e-05
SC4001E0,3.53,-9.986813186813187e-06,9.624908424908439e-06
SC4001E0,3.54,1.8145054945054945e-05,5.210256410256422e-06
SC4001E0,3.55,1.4956776556776557e-05,4.826373626373638e-06
SC4001E0,3.56,1.88014652014652e-05,7.225641025641038e-06
SC4001E0,3.57,1.1956043956043956e-05,9.33699633699635e-06
SC4001E0,3.58,1.7394871794871793e-05,1.0104761904761916e-05
SC4001E0,3.59,2.123956043956044e-05,1.0392673992674005e-05
SC4001E0,3.6,6.9860805860805854e-06,8.37728937728939e-06
SC4001E0,3.61,6.892307692307691e-06,6.169963369963382e-06
SC4001E0,3.62,1.7394871794871793e-05,6.169963369963382e-06
SC4001E0,3.63,9.893040293040294e-06,8.473260073260086e-06
SC4001E0,3.64,6.048351648351648e-06,1.1064468864468876e-05
SC4001E0,3.65,9.7992673992674e-06,1.0680586080586094e-05
SC4001E0,3.66,1.0643223443223442e-05,6.649816849816862e-06
SC4001E0,3.67,1.261245421245421e-05,7.321611721611734e-06
SC4001E0,3.68,1.4300366300366299e-05,6.361904761904774e-06
SC4001E0,3.69,1.551941391941392e-05,7.033699633699646e-06
SC4001E0,3.7,9.611721611721611e-06,8.37728937728939e-06
SC4001E0,3.71,1.1862271062271063e-05,7.993406593406606e-06
SC4001E0,3.72,1.355018315018315e-05,1.2504029304029315e-05
SC4001E0,3.73,8.58021978021978e-06,8.56923076923078e-06
SC4001E0,3.74,4.547985347985347e-06,1.029670329670331e-05
SC4001E0,3.75,9.517948717948718e-06,3.866666666666679e-06
SC4001E0,3.76,2.424029304029304e-05,5.6901098901099026e-06
SC4001E0,3.77,1.7582417582417584e-05,4.442490842490855e-06
SC4001E0,3.78,1.7676190476190476e-05,4.346520146520159e-06
SC4001E0,3.79,1.0549450549450548e-05,8.37728937728939e-06
SC4001E0,3.8,3.4227106227106226e-06,1.0008791208791221e-05
SC4001E0,3.81,9.236630036630036e-06,1.1064468864468876e-05
SC4001E0,3.82,-2.2974358974358975e-06,1.1352380952380964e-05
SC4001E0,3.83,6.517216117216117e-06,1.077655677655679e-05
SC4001E0,3.84,3.985347985347985e-06,6.265934065934078e-06
SC4001E0,3.85,5.485714285714286e-06,6.361904761904774e-06
SC4001E0,3.86,3.4227106227106226e-06,5.114285714285727e-06
SC4001E0,3.87,-2.7663003663003663e-06,7.129670329670342e-06
SC4001E0,3.88,-5.954578754578754e-06,6.93772893772895e-06
SC4001E0,3.89,7.454945054945055e-06,5.402197802197814e-06
SC4001E0,3.9,-1.1487179487179487e-05,8.473260073260086e-06
SC4001E0,3.91,-4.923076923076923e-06,3.0989010989011114e-06
SC4001E0,3.92,-1.3643956043956043e-05,2.1391941391941516e-06
SC4001E0,3.93,-8.205128205128204e-06,2.0432234432234555e-06
SC4001E0,3.94,-2.452161172161172e-05,1.8512820512820636e-06
SC4001E0,3.95,-1.1018315018315018e-05,8.91575091575104e-07
SC4001E0,3.96,-1.1862271062271063e-05,6.03663003663016e-07
SC4001E0,3.97,-1.8895238095238093e-05,3.0989010989011114e-06
SC4001E0,3.98,-2.1614652014652013e-05,5.306227106227118e-06
SC4001E0,3.99,-1.3831501831501831e-05,4.346520146520159e-06
SC4001E0,4.0,-2.5084249084249082e-05,3.6747252747252874e-06
SC4001E0,4.01,-3.886886446886446e-05,2.9069597069597193e-06
SC4001E0,4.02,-5.846739926739926e-05,1.2380952380953613e-07
SC4001E0,4.03,-6.55003663003663e-05,-5.634432234432222e-06
SC4001E0,4.04,-9.091282051282052e-05,-8.609523809523798e-06
SC4001E0,4.05,-8.866227106227106e-05,-9.281318681318669e-06
SC4001E0,4.06,-8.969377289377288e-05,-5.058608058608046e-06
SC4001E0,4.07,-8.81934065934066e-05,-2.3714285714285596e-06
SC4001E0,4.08,-8.378608058608059e-05,-3.5604395604394376e-07
SC4001E0,4.09,-8.106666666666665e-05,4.826373626373638e-06
SC4001E0,4.1,-6.362490842490843e-05,2.7150183150183276e-06
SC4001E0,4.11,-5.546666666666667e-05,6.99633699633712e-07
SC4001E0,4.12,-3.8024908424908424e-05,2.197802197802321e-07
SC4001E0,4.13,-2.424029304029304e-05,-7.399267399267277e-07
SC4001E0,4.14,-1.28e-05,3.0029304029304153e-06
SC4001E0,4.15,3.2820512820512804e-07,1.6593406593406715e-06
SC4001E0,4.16,5.673260073260072e-06,3.0029304029304153e-06
SC4001E0,4.17,9.986813186813187e-06,1.2754578754578877e-06
SC4001E0,4.18,1.7676190476190476e-05,1.8512820512820636e-06
SC4001E0,4.19,1.983296703296703e-05,-1.9875457875457753e-06
SC4001E0,4.2,2.3396336996336995e-05,-5.538461538461527e-06
SC4001E0,4.21,1.9457875457875454e-05,-4.0029304029303905e-06
SC4001E0,4.22,2.18021978021978e-05,-1.7956043956043834e-06
SC4001E0,4.23,2.5646886446886446e-05,1.4673992673992796e-06
SC4001E0,4.24,1.7676190476190476e-05,1.94725274725276e-06
SC4001E0,4.25,1.6550915750915747e-05,-6.439560439560317e-07
SC4001E0,4.26,9.049084249084249e-06,2.2351648351648477e-06
SC4001E0,4.27,-1.8285714285714286e-06,2.5230769230769354e-06
SC4001E0,4.28,-1.711355311355311e-05,1.2380952380953613e-07
SC4001E0,4.29,-3.221098901098901e-05,-8.358974358974236e-07
SC4001E0,4.3,-3.886886446886446e-05,-3.1391941391941272e-06
SC4001E0,4.31,-7.778461538461538e-05,-3.2351648351648233e-06
SC4001E0,4.32,-7.684688644688644e-05,-4.578754578754567e-06
SC4001E0,4.33,-7.412747252747253e-05,-3.715018315018303e-06
SC4001E0,4.34,-6.728205128205128e-05,-6.306227106227094e-06
SC4001E0,4.35,-4.89025641025641e-05,-6.018315018315006e-06
SC4001E0,4.36,-4.3182417582417586e-05,-3.715018315018303e-06
SC4001E0,4.37,-2.6397069597069595e-05,-3.523076923076911e-06
SC4001E0,4.38,5.11062271062271e-06,-4.386813186813175e-06
SC4001E0,4.39,1.9926739926739927e-05,-4.194871794871783e-06
SC4001E0,4.4,2.3958974358974356e-05,-4.770695970695959e-06
SC4001E0,4.41,3.5961904761904764e-05,-2.0835164835164718e-06
SC4001E0,4.42,4.787106227106227e-05,-1.3157509157509035e-06
SC4001E0,4.43,5.096556776556776e-05,-5.730402930402918e-06
SC4001E0,4.44,5.0121611721611716e-05,-8.129670329670318e-06
SC4001E0,4.45,5.4060073260073254e-05,-9.665201465201453e-06
SC4001E0,4.46,5.752967032967033e-05,-5.730402930402918e-06
SC4001E0,4.47,5.4247619047619045e-05,-4.674725274725262e-06
SC4001E0,4.48,5.518534798534798e-05,-2.275457875457863e-06
SC4001E0,4.49,5.096556776556776e-05,-3.715018315018303e-06
SC4001E0,4.5,4.730842490842491e-05,7.956043956044079e-07
SC4001E0,4.51,4.674578754578754e-05,4.05860805860807e-06
SC4001E0,4.52,3.8493772893772893e-05,1.0008791208791221e-05
SC4001E0,4.53,3.9806593406593406e-05,1.1640293040293054e-05
SC4001E0,4.54,3.614945054945055e-05,6.361904761904774e-06
SC4001E0,4.55,4.083809523809523e-05,3.6747252747252874e-06
SC4001E0,4.56,3.915018315018315e-05,3.0029304029304153e-06
SC4001E0,4.57,3.1460805860805854e-05,5.210256410256422e-06
SC4001E0,4.58,3.4836630036630035e-05,2.7150183150183276e-06
SC4001E0,4.59,3.905641025641026e-05,3.1948717948718075e-06
SC4001E0,4.6,1.3831501831501831e-05,5.306227106227118e-06
SC4001E0,4.61,6.798534798534798e-06,4.538461538461551e-06
SC4001E0,4.62,-9.142857142857142e-06,8.91575091575104e-07
SC4001E0,4.63,-2.1989743589743588e-05,6.03663003663016e-07
SC4001E0,4.64,-5.0965567765567766e-05,5.0769230769232e-07
SC4001E0,4.65,-5.912380952380953e-05,-1.4117216117215996e-06
SC4001E0,4.66,-5.827985347985348e-05,-4.520146520146397e-07
SC4001E0,4.67,-6.165567765567766e-05,3.1948717948718075e-06
SC4001E0,4.68,-5.2653479853479846e-05,5.97802197802199e-06
SC4001E0,4.69,-3.718095238095238e-05,8.185347985348e-06
SC4001E0,4.7,-2.3677655677655678e-05,8.281318681318694e-06
SC4001E0,4.71,-1.0783882783882786e-06,7.033699633699646e-06
SC4001E0,4.72,1.8895238095238093e-05,4.538461538461551e-06
SC4001E0,4.73,4.477655677655677e-05,2.0432234432234555e-06
SC4001E0,4.74,5.565421245421245e-05,-1.5076923076922954e-06
SC4001E0,4.75,6.362490842490843e-05,4.442490842490855e-06
SC4001E0,4.76,7.122051282051282e-05,6.169963369963382e-06
SC4001E0,4.77,7.440879120879122e-05,6.7457875457875576e-06
SC4001E0,4.78,7.581538461538462e-05,4.538461538461551e-06
SC4001E0,4.79,7.309597069597068e-05,2.6190476190476315e-06
SC4001E0,4.8,7.234578754578754e-05,-1.7956043956043834e-06
SC4001E0,4.81,7.619047619047618e-05,-3.2351648351648233e-06
SC4001E0,4.82,6.728205128205128e-05,2.5230769230769354e-06
SC4001E0,4.83,6.512527472527471e-05,1.0008791208791221e-05
SC4001E0,4.84,6.062417582417582e-05,1.1160439560439574e-05
SC4001E0,4.85,5.9686446886446885e-05,9.816849816849829e-06
SC4001E0,4.86,5.874871794871795e-05,8.953113553113564e-06
SC4001E0,4.87,5.19032967032967e-05,9.624908424908439e-06
SC4001E0,4.88,5.274725274725274e-05,8.85714285714287e-06
SC4001E0,4.89,6.906373626373626e-05,7.89743589743591e-06
SC4001E0,4.9,3.1179487179487176e-05,1.0584615384615396e-05
SC4001E0,4.91,5.030915750915751e-05,6.8417582417582545e-06
SC4001E0,4.92,4.562051282051282e-05,7.321611721611734e-06
SC4001E0,4.93,4.730842490842491e-05,2.7150183150183276e-06
SC4001E0,4.94,4.177582417582417e-05,6.553846153846166e-06
SC4001E0,4.95,4.0369230769230764e-05,4.922344322344335e-06
SC4001E0,4.96,3.868131868131868e-05,1.0200732600732613e-05
SC4001E0,4.97,3.3898901098901096e-05,1.2600000000000013e-05
SC4001E0,4.98,3.399267399267399e-05,1.2504029304029315e-05
SC4001E0,4.99,2.7897435897435898e-05,1.125641025641027e-05
SC4001E0,5.0,2.6584615384615385e-05,1.2216117216117229e-05
SC4001E0,5.01,2.63032967032967e-05,1.077655677655679e-05
SC4001E0,5.02,2.5834432234432233e-05,1.096849816849818e-05
SC4001E0,5.03,1.6738461538461537e-05,8.761172161172174e-06
SC4001E0,5.04,1.5894505494505494e-05,9.528937728937741e-06
SC4001E0,5.05,1.598827838827839e-05,6.93772893772895e-06
SC4001E0,5.06,1.3456410256410256e-05,2.9069597069597193e-06
SC4001E0,5.07,1.2143589743589743e-05,5.402197802197814e-06
SC4001E0,5.08,1.4206593406593406e-05,7.41758241758243e-06
SC4001E0,5.09,8.861538461538462e-06,5.210256410256422e-06
SC4001E0,5.1,7.548717948717948e-06,4.826373626373638e-06
SC4001E0,5.11,5.767032967032966e-06,6.553846153846166e-06
SC4001E0,5.12,3.2820512820512804e-07,8.665201465201478e-06
SC4001E0,5.13,1.7347985347985345e-06,5.6901098901099026e-06
SC4001E0,5.14,-8.908424908424909e-07,7.321611721611734e-06
SC4001E0,5.15,3.891575091575091e-06,6.649816849816862e-06
SC4001E0,5.16,2.864761904761905e-05,3.0989010989011114e-06
SC4001E0,5.17,-9.142857142857142e-06,5.402197802197814e-06
SC4001E0,5.18,1.5050549450549449e-05,2.5230769230769354e-06
SC4001E0,5.19,1.5144322344322342e-05,5.01831501831503e-06
SC4001E0,5.2,2.574065934065934e-05,5.786080586080598e-06
SC4001E0,5.21,1.9551648351648353e-05,4.346520146520159e-06
SC4001E0,5.22,1.6175824175824176e-05,3.0989010989011114e-06
SC4001E0,5.23,2.9585347985347984e-05,4.922344322344335e-06
SC4001E0,5.24,3.277362637362637e-05,2.5230769230769354e-06
SC4001E0,5.25,3.08981684981685e-05,1.2754578754578877e-06
SC4001E0,5.26,2.9960439560439558e-05,1.0835164835164958e-06
SC4001E0,5.27,2.864761904761905e-05,-2.8512820512820394e-06
SC4001E0,5.28,3.1179487179487176e-05,2.7838827838840117e-08
SC4001E0,5.29,2.8928937728937728e-05,7.225641025641038e-06
SC4001E0,5.3,2.855384615384615e-05,7.513553113553125e-06
SC4001E0,5.31,2.5459340659340656e-05,9.912820512820525e-06
SC4001E0,5.32,1.7394871794871793e-05,1.480732600732602e-05
SC4001E0,5.33,1.4769230769230768e-05,1.2600000000000013e-05
SC4001E0,5.34,1.711355311355311e-05,7.129670329670342e-06
SC4001E0,5.35,1.6832234432234432e-05,6.073992673992687e-06
SC4001E0,5.36,1.1768498168498167e-05,4.634432234432247e-06
SC4001E0,5.37,1.5050549450549449e-05,-4.520146520146397e-07
SC4001E0,5.38,1.3175091575091573e-05,-1.2197802197802074e-06
SC4001E0,5.39,1.1299633699633698e-05,1.2380952380953613e-07
SC4001E0,5.4,4.454212454212454e-06,3.770695970695983e-06
SC4001E0,5.41,4.079120879120879e-06,3.866666666666679e-06
SC4001E0,5.42,1.7347985347985345e-06,2.197802197802321e-07
SC4001E0,5.43,5.298168498168498e-06,1.6593406593406715e-06
SC4001E0,5.44,1.6644688644688645e-05,6.03663003663016e-07
SC4001E0,5.45,-1.4394139194139194e-05,1.2754578754578877e-06
SC4001E0,5.46,6.517216117216117e-06,3.962637362637375e-06
SC4001E0,5.47,5.86080586080586e-06,2.3311355311355437e-06
SC4001E0,5.48,6.235897435897436e-06,2.1391941391941516e-06
SC4001E0,5.49,1.3456410256410256e-05,-8.358974358974236e-07
SC4001E0,5.5,1.4769230769230768e-05,1.2754578754578877e-06
SC4001E0,5.51,1.1487179487179487e-05,5.786080586080598e-06
SC4001E0,5.52,1.2237362637362637e-05,4.634432234432247e-06
SC4001E0,5.53,6.9860805860805854e-06,6.361904761904774e-06
SC4001E0,5.54,1.308131868131868e-05,1.3714285714285837e-06
SC4001E0,5.55,7.267399267399267e-06,5.0769230769232e-07
SC4001E0,5.56,6.892307692307691e-06,9.875457875457997e-07
SC4001E0,5.57,6.048351648351648e-06,1.2754578754578877e-06
SC4001E0,5.58,-2.203663003663004e-06,4.442490842490855e-06
SC4001E0,5.59,-9.142857142857142e-06,8.56923076923078e-06
SC4001E0,5.6,-8.392673992673992e-06,1.0104761904761916e-05
SC4001E0,5.61,-7.361172161172161e-06,6.553846153846166e-06
SC4001E0,5.62,-8.392673992673992e-06,2.197802197802321e-07
SC4001E0,5.63,-6.798534798534798e-06,7.956043956044079e-07
SC4001E0,5.64,-1.0736996336996337e-05,-1.2197802197802074e-06
SC4001E0,5.65,-1.1768498168498169e-05,-2.659340659340647e-06
SC4001E0,5.66,-1.0361904761904761e-05,-2.563369963369951e-06
SC4001E0,5.67,-7.079853479853479e-06,-3.043223443223431e-06
SC4001E0,5.68,-1.3925274725274725e-05,1.3714285714285837e-06
SC4001E0,5.69,-1.5050549450549449e-05,5.0769230769232e-07
SC4001E0,5.7,-1.3268864468864469e-05,-1.6036630036629915e-06
SC4001E0,5.71,-1.4112820512820512e-05,-2.563369963369951e-06
SC4001E0,5.72,-1.551941391941392e-05,-2.275457875457863e-06
SC4001E0,5.73,-2.3771428571428573e-05,-4.520146520146397e-07
SC4001E0,5.74,-2.5834432234432233e-05,-4.520146520146397e-07
SC4001E0,5.75,-2.4802930402930403e-05,3.1948717948718075e-06
SC4001E0,5.76,-4.618315018315018e-05,2.5230769230769354e-06
SC4001E0,5.77,-5.893626373626373e-05,2.2351648351648477e-06
SC4001E0,5.78,-8.884981684981685e-05,5.306227106227118e-06
SC4001E0,5.79,-9.372600732600732e-05,-6.439560439560317e-07
SC4001E0,5.8,-0.0001165128205128205,1.6593406593406715e-06
SC4001E0,5.81,-0.00012138901098901098,2.7838827838840117e-08
SC4001E0,5.82,-0.00012157655677655676,1.7553113553113676e-06
SC4001E0,5.83,-0.0001210139194139194,2.6190476190476315e-06
SC4001E0,5.84,-0.00012054505494505494,2.197802197802321e-07
SC4001E0,5.85,-0.00012035750915750915,-9.318681318681197e-07
SC4001E0,5.86,-0.00011801318681318681,-4.520146520146397e-07
SC4001E0,5.87,-0.00011238681318681318,-2.563369963369951e-06
SC4001E0,5.88,-0.00010432234432234431,-4.194871794871783e-06
SC4001E0,5.89,-9.091282051282052e-05,-5.634432234432222e-06
SC4001E0,5.9,-8.125421245421244e-05,-6.114285714285702e-06
SC4001E0,5.91,-7.234578754578754e-05,-9.377289377289365e-06
SC4001E0,5.92,-7.140805860805861e-05,-1.024102564102563e-05
SC4001E0,5.93,-6.024908424908424e-05,-1.1008791208791196e-05
SC4001E0,5.94,-5.6498168498168496e-05,-1.1296703296703285e-05
SC4001E0,5.95,-5.274725274725274e-05,-1.3216117216117204e-05
SC4001E0,5.96,-5.1246886446886445e-05,-1.3599999999999988e-05
SC4001E0,5.97,-4.9465201465201463e-05,-1.6095238095238083e-05
SC4001E0,5.98,-5.368498168498169e-05,-1.0145054945054933e-05
SC4001E0,5.99,-4.9652747252747254e-05,-6.978021978021966e-06
SC4001E0,6.0,-5.3966300366300366e-05,-1.4117216117215996e-06
SC4001E0,6.01,-5.387252747252747e-05,-8.358974358974236e-07
SC4001E0,6.02,-5.3497435897435896e-05,-1.8915750915750792e-06
SC4001E0,6.03,-5.668571428571428e-05,-5.1545787545787424e-06
SC4001E0,6.04,-5.593553113553113e-05,-7.937728937728926e-06
SC4001E0,6.05,-5.0871794871794864e-05,-1.139267399267398e-05
SC4001E0,6.06,-5.443516483516483e-05,-1.024102564102563e-05
SC4001E0,6.07,-5.9967765567765564e-05,-8.033699633699622e-06
SC4001E0,6.08,-5.752967032967033e-05,-7.5538461538461415e-06
SC4001E0,6.09,-5.612307692307692e-05,-9.76117216117215e-06
SC4001E0,6.1,-6.606300366300366e-05,-1.4655677655677643e-05
SC4001E0,6.11,-6.568791208791208e-05,-1.3983882783882773e-05
SC4001E0,6.12,-7.075164835164836e-05,-1.4463736263736253e-05
SC4001E0,6.13,-7.243956043956043e-05,-1.3983882783882773e-05
SC4001E0,6.14,-6.409377289377289e-05,-1.2736263736263724e-05
SC4001E0,6.15,-6.259340659340658e-05,-1.1200732600732588e-05
SC4001E0,6.16,-5.7435897435897434e-05,-1.1776556776556765e-05
SC4001E0,6.17,-5.7154578754578755e-05,-1.024102564102563e-05
SC4001E0,6.18,-5.574798534798535e-05,-9.76117216117215e-06
SC4001E0,6.19,-6.062417582417582e-05,-6.978021978021966e-06
SC4001E0,6.2,-5.64043956043956e-05,-6.306227106227094e-06
SC4001E0,6.21,-5.903003663003663e-05,-6.786080586080574e-06
SC4001E0,6.22,-5.687326007326007e-05,-4.48278388278387e-06
SC4001E0,6.23,-5.7435897435897434e-05,-1.4117216117215996e-06
SC4001E0,6.24,-5.818608058608058e-05,9.875457875457997e-07
SC4001E0,6.25,-5.3966300366300366e-05,6.03663003663016e-07
SC4001E0,6.26,-5.134065934065934e-05,-1.0278388278388157e-06
SC4001E0,6.27,-5.0121611721611716e-05,-6.114285714285702e-06
SC4001E0,6.28,-4.862124542124542e-05,-1.1008791208791196e-05
SC4001E0,6.29,-4.5526739926739926e-05,-1.7150915750915738e-05
SC4001E0,6.3,-4.0369230769230764e-05,-2.003003663003662e-05
SC4001E0,6.31,-3.971282051282051e-05,-1.8782417582417572e-05
SC4001E0,6.32,-3.952527472527473e-05,-1.590329670329669e-05
SC4001E0,6.33,-3.6430769230769226e-05,-1.494358974358973e-05
SC4001E0,6.34,-4.4682783882783876e-05,-1.0720879120879108e-05
SC4001E0,6.35,-4.243223443223443e-05,-8.897435897435885e-06
SC4001E0,6.36,-4.308864468864469e-05,-8.99340659340658e-06
SC4001E0,6.37,-4.102564102564103e-05,-1.5807326007325996e-05
SC4001E0,6.38,-3.886886446886446e-05,-1.5615384615384604e-05
SC4001E0,6.39,-4.402637362637362e-05,-1.2736263736263724e-05
SC4001E0,6.4,-5.302857142857143e-05,-1.3504029304029292e-05
SC4001E0,6.41,-4.524542124542125e-05,-1.5615384615384604e-05
SC4001E0,6.42,-9.532014652014652e-05,-1.2736263736263724e-05
SC4001E0,6.43,-9.588278388278388e-05,-1.6767032967032957e-05
SC4001E0,6.44,-9.522637362637363e-05,-1.619120879120878e-05
SC4001E0,6.45,-9.335091575091574e-05,-1.695897435897435e-05
SC4001E0,6.46,-9.175677655677656e-05,-1.6479120879120867e-05
SC4001E0,6.47,-8.922490842490842e-05,-1.283223443223442e-05
SC4001E0,6.48,-8.631794871794872e-05,-1.1008791208791196e-05
SC4001E0,6.49,-8.20981684981685e-05,-9.857142857142845e-06
SC4001E0,6.5,-7.647179487179487e-05,-1.3120146520146508e-05
SC4001E0,6.51,-6.803223443223442e-05,-1.523150183150182e-05
SC4001E0,6.52,-5.6779487179487174e-05,-1.5135531135531124e-05
SC4001E0,6.53,-5.3403663003663e-05,-1.7438827838827824e-05
SC4001E0,6.54,-4.44014652014652e-05,-1.638315018315017e-05
SC4001E0,6.55,-3.286739926739926e-05,-1.3695970695970684e-05
SC4001E0,6.56,-3.0147985347985345e-05,-1.1200732600732588e-05
SC4001E0,6.57,-2.8366300366300363e-05,-9.089377289377278e-06
SC4001E0,6.58,-2.7241025641025638e-05,-7.937728937728926e-06
SC4001E0,6.59,-2.574065934065934e-05,-8.417582417582404e-06
SC4001E0,6.6,-1.9551648351648353e-05,-8.897435897435885e-06
SC4001E0,6.61,-2.1052014652014652e-05,-1.024102564102563e-05
SC4001E0,6.62,-2.133333333333333e-05,-5.92234432234431e-06
SC4001E0,6.63,-2.1989743589743588e-05,-2.7553113553113434e-06
SC4001E0,6.64,-1.4581684981684981e-05,-4.866666666666654e-06
SC4001E0,6.65,-1.0080586080586079e-05,-5.058608058608046e-06
SC4001E0,6.66,-7.267399267399267e-06,-6.306227106227094e-06
SC4001E0,6.67,-2.10989010989011e-06,-3.427106227106215e-06
SC4001E0,6.68,7.736263736263736e-06,-2.7553113553113434e-06
SC4001E0,6.69,1.2331135531135532e-05,-6.018315018315006e-06
SC4001E0,6.7,2.874139194139194e-05,-6.4021978021977896e-06
SC4001E0,6.71,-8.673992673992673e-06,-4.0029304029303905e-06
SC4001E0,6.72,8.861538461538462e-06,-2.8512820512820394e-06
SC4001E0,6.73,9.986813186813187e-06,-5.92234432234431e-06
SC4001E0,6.74,1.0924542124542124e-05,-6.306227106227094e-06
SC4001E0,6.75,1.9176556776556775e-05,-5.1545787545787424e-06
SC4001E0,6.76,1.8895238095238093e-05,-2.179487179487167e-06
SC4001E0,6.77,1.5800732600732602e-05,-1.5076923076922954e-06
SC4001E0,6.78,2.0489377289377288e-05,-1.5076923076922954e-06
SC4001E0,6.79,2.3677655677655678e-05,-1.3157509157509035e-06
SC4001E0,6.8,2.0208058608058606e-05,3.0989010989011114e-06
SC4001E0,6.81,1.973919413919414e-05,2.5230769230769354e-06
SC4001E0,6.82,1.308131868131868e-05,8.281318681318694e-06
SC4001E0,6.83,2.4615384615384616e-05,1.1832234432234445e-05
SC4001E0,6.84,2.33025641025641e-05,1.0872527472527486e-05
SC4001E0,6.85,2.5084249084249082e-05,6.553846153846166e-06
SC4001E0,6.86,2.499047619047619e-05,8.91575091575104e-07
SC4001E0,6.87,3.652454212454212e-05,-4.520146520146397e-07
SC4001E0,6.88,3.221098901098901e-05,-5.479853479853357e-07
SC4001E0,6.89,3.352380952380952e-05,-1.4117216117215996e-06
SC4001E0,6.9,3.4180219780219775e-05,1.0835164835164958e-06
SC4001E0,6.91,3.6618315018315016e-05,1.8512820512820636e-06
SC4001E0,6.92,3.071062271062271e-05,3.866666666666679e-06
SC4001E0,6.93,2.5178021978021977e-05,1.0835164835164958e-06
SC4001E0,6.94,3.1648351648351645e-05,2.197802197802321e-07
SC4001E0,6.95,3.108571428571429e-05,4.922344322344335e-06
SC4001E0,6.96,3.4180219780219775e-05,-2.179487179487167e-06
SC4001E0,6.97,3.455531135531135e-05,-3.043223443223431e-06
SC4001E0,6.98,2.864761904761905e-05,1.4673992673992796e-06
SC4001E0,6.99,1.2893772893772893e-05,1.2754578754578877e-06
SC4001E0,7.0,1.9551648351648353e-05,-3.715018315018303e-06
SC4001E0,7.01,-8.767765567765568e-06,-4.48278388278387e-06
SC4001E0,7.02,-8.861538461538462e-06,-4.290842490842479e-06
SC4001E0,7.03,-8.392673992673992e-06,-2.9472527472527347e-06
SC4001E0,7.04,-7.361172161172161e-06,-4.578754578754567e-06
SC4001E0,7.05,-5.2043956043956044e-06,1.2754578754578877e-06
SC4001E0,7.06,-3.328937728937729e-06,2.1391941391941516e-06
SC4001E0,7.07,4.2197802197802177e-07,1.94725274725276e-06
SC4001E0,7.08,7.548717948717948e-06,9.875457875457997e-07
SC4001E0,7.09,2.5084249084249082e-05,4.11721611721624e-07
SC4001E0,7.1,3.614945054945055e-05,2.1391941391941516e-06
SC4001E0,7.11,3.7837362637362634e-05,2.197802197802321e-07
SC4001E0,7.12,3.296117216117216e-05,2.6190476190476315e-06
SC4001E0,7.13,3.1460805860805854e-05,-2.7553113553113434e-06
SC4001E0,7.14,1.636336996336996e-05,-9.318681318681197e-07
SC4001E0,7.15,1.261245421245421e-05,-3.9069597069596944e-06
SC4001E0,7.16,1.0924542124542124e-05,-4.48278388278387e-06
SC4001E0,7.17,1.1018315018315018e-05,-1.6036630036629915e-06
SC4001E0,7.18,2.0114285714285714e-05,-1.2197802197802074e-06
SC4001E0,7.19,2.0583150183150183e-05,1.6593406593406715e-06
SC4001E0,7.2,4.402637362637362e-05,2.7838827838840117e-08
SC4001E0,7.21,5.499780219780219e-05,-1.4117216117215996e-06
SC4001E0,7.22,7.037655677655678e-05,-3.331135531135519e-06
SC4001E0,7.23,0.0001031032967032967,-1.4117216117215996e-06
SC4001E0,7.24,0.00010788571428571428,-1.1238095238095116e-06
SC4001E0,7.25,0.00014051868131868134,3.290842490842503e-06
SC4001E0,7.26,0.00014717655677655675,6.265934065934078e-06
SC4001E0,7.27,0.00015505347985347983,8.185347985348e-06
SC4001E0,7.28,0.00015617875457875458,6.45787545787547e-06
SC4001E0,7.29,0.00015627252747252749,7.129670329670342e-06
SC4001E0,7.3,0.00015655384615384616,4.922344322344335e-06
SC4001E0,7.31,0.00015627252747252749,3.962637362637375e-06
SC4001E0,7.32,0.00015646007326007328,2.7150183150183276e-06
SC4001E0,7.33,0.00015617875457875458,7.129670329670342e-06
SC4001E0,7.34,0.00015636630036630037,6.99633699633712e-07
SC4001E0,7.35,0.00015655384615384616,1.94725274725276e-06
SC4001E0,7.36,0.00015599120879120876,2.8109890109890236e-06
SC4001E0,7.37,0.0001553347985347985,8.761172161172174e-06
SC4001E0,7.38,0.00015458461538461537,9.624908424908439e-06
SC4001E0,7.39,0.00015111501831501832,1.5958974358974372e-05
SC4001E0,7.4,0.00014764542124542124,1.0200732600732613e-05
SC4001E0,7.41,0.00014558241758241757,6.45787545787547e-06
SC4001E0,7.42,0.0001424879120879121,1.1736263736263749e-05
SC4001E0,7.43,0.0001391120879120879,1.931794871794873e-05
SC4001E0,7.44,0.00013723663003663002,2.162124542124543e-05
SC4001E0,7.45,0.0001313289377289377,2.6611721611721627e-05
SC4001E0,7.46,0.00013658021978021976,1.643882783882785e-05
SC4001E0,7.47,0.00013451721611721612,1.9989743589743603e-05
SC4001E0,7.48,0.00013048498168498167,1.0872527472527486e-05
SC4001E0,7.49,0.00012317069597069598,1.883809523809525e-05
SC4001E0,7.5,0.00013067252747252746,1.3751648351648364e-05
SC4001E0,7.51,0.00012767179487179487,1.5958974358974372e-05
SC4001E0,7.52,0.000125796336996337,1.5383150183150196e-05
SC4001E0,7.53,0.00012401465201465202,1.8070329670329682e-05
SC4001E0,7.54,0.0001227018315018315,1.6342857142857156e-05
SC4001E0,7.55,0.00011923223443223443,1.643882783882785e-05
SC4001E0,7.56,0.00011444981684981685,2.027765567765569e-05
SC4001E0,7.57,0.00011257435897435897,2.0757509157509172e-05
SC4001E0,7.58,0.00010835457875457875,2.3540659340659353e-05
SC4001E0,7.59,0.0001046974358974359,2.1717216117216132e-05
SC4001E0,7.6,0.00010075897435897435,2.4212454212454223e-05
SC4001E0,7.61,9.532014652014652e-05,2.0853479853479866e-05
SC4001E0,7.62,9.55076923076923e-05,2.1525274725274737e-05
SC4001E0,7.63,8.913113553113552e-05,1.8454212454212466e-05
SC4001E0,7.64,8.538021978021977e-05,1.7110622710622725e-05
SC4001E0,7.65,8.331721611721611e-05,2.2580952380952392e-05
SC4001E0,7.66,7.853479853479854e-05,2.363663003663005e-05
SC4001E0,7.67,7.684688644688644e-05,2.4788278388278403e-05
SC4001E0,7.68,7.45025641025641e-05,2.4212454212454223e-05
SC4001E0,7.69,6.99076923076923e-05,2.296483516483518e-05
SC4001E0,7.7,6.793846153846154e-05,2.2293040293040305e-05
SC4001E0,7.71,6.006153846153846e-05,2.3540659340659353e-05
SC4001E0,7.72,6.475018315018315e-05,2.363663003663005e-05
SC4001E0,7.73,5.752967032967033e-05,2.0949450549450564e-05
SC4001E0,7.74,5.865494505494505e-05,1.6534798534798545e-05
SC4001E0,7.75,6.259340659340658e-05,2.027765567765569e-05
SC4001E0,7.76,5.452893772893772e-05,1.5191208791208804e-05
SC4001E0,7.77,5.462271062271062e-05,1.5383150183150196e-05
SC4001E0,7.78,5.0871794871794864e-05,1.4615384615384629e-05
SC4001E0,7.79,4.8527472527472525e-05,1.4519413919413931e-05
SC4001E0,7.8,4.065054945054945e-05,2.0085714285714298e-05
SC4001E0,7.81,3.605567765567765e-05,1.1736263736263749e-05
SC4001E0,7.82,3.474285714285714e-05,6.553846153846166e-06
SC4001E0,7.83,2.902271062271062e-05,1.0872527472527486e-05
SC4001E0,7.84,2.6490842490842486e-05,1.2216117216117229e-05
SC4001E0,7.85,1.711355311355311e-05,1.2312087912087925e-05
SC4001E0,7.86,1.6175824175824176e-05,8.85714285714287e-06
SC4001E0,7.87,1.1018315018315018e-05,9.528937728937741e-06
SC4001E0,7.88,3.3289377289377286e-06,7.41758241758243e-06
SC4001E0,7.89,3.3289377289377286e-06,5.882051282051295e-06
SC4001E0,7.9,5.0168498168498166e-06,3.386813186813199e-06
SC4001E0,7.91,1.0783882783882782e-06,1.4673992673992796e-06
SC4001E0,7.92,-2.6725274725274728e-06,6.03663003663016e-07
SC4001E0,7.93,-5.860805860805861e-06,1.1640293040293054e-05
SC4001E0,7.94,-8.392673992673992e-06,-4.0029304029303905e-06
SC4001E0,7.95,-1.0174358974358973e-05,-2.179487179487167e-06
SC4001E0,7.96,-1.3831501831501831e-05,-1.6996336996336873e-06
SC4001E0,7.97,-1.701978021978022e-05,-6.114285714285702e-06
SC4001E0,7.98,-1.8332600732600732e-05,-5.634432234432222e-06
SC4001E0,7.99,-1.870769230769231e-05,-7.745787545787534e-06
SC4001E0,8.0,-1.8145054945054945e-05,-9.089377289377278e-06
SC4001E0,8.01,-1.7582417582417584e-05,-5.634432234432222e-06
SC4001E0,8.02,-3.071062271062271e-05,-4.48278388278387e-06
SC4001E0,8.03,-3.53992673992674e-05,-5.44249084249083e-06
SC4001E0,8.04,-4.2338461538461536e-05,-2.7553113553113434e-06
SC4001E0,8.05,-4.102564102564103e-05,-4.866666666666654e-06
SC4001E0,8.06,-4.43076923076923e-05,-6.114285714285702e-06
SC4001E0,8.07,-4.0087912087912085e-05,-7.84175824175823e-06
SC4001E0,8.08,-4.9652747252747254e-05,-5.44249084249083e-06
SC4001E0,8.09,-4.89025641025641e-05,-1.2160439560439549e-05
SC4001E0,8.1,-6.0436630036630033e-05,-1.1008791208791196e-05
SC4001E0,8.11,-5.4716483516483514e-05,-3.523076923076911e-06
SC4001E0,8.12,-6.765714285714286e-05,-1.0049084249084237e-05
SC4001E0,8.13,-6.184322344322343e-05,-1.0145054945054933e-05
SC4001E0,8.14,-6.268717948717948e-05,-4.96263736263735e-06
SC4001E0,8.15,-6.287472527472527e-05,-9.089377289377278e-06
SC4001E0,8.16,-6.137435897435897e-05,-1.0528937728937718e-05
SC4001E0,8.17,-5.846739926739926e-05,-1.187252747252746e-05
SC4001E0,8.18,-5.874871794871795e-05,-8.609523809523798e-06
SC4001E0,8.19,-6.128058608058608e-05,-1.0145054945054933e-05
SC4001E0,8.2,-5.7154578754578755e-05,-9.665201465201453e-06
SC4001E0,8.21,-5.584175824175824e-05,-7.5538461538461415e-06
SC4001E0,8.22,-5.5372893772893773e-05,-6.2102564102563974e-06
SC4001E0,8.23,-5.518534798534798e-05,1.2380952380953613e-07
SC4001E0,8.24,-5.6310622710622705e-05,-7.169963369963357e-06
SC4001E0,8.25,-5.6029304029304026e-05,-4.520146520146397e-07
SC4001E0,8.26,-5.3497435897435896e-05,-4.674725274725262e-06
SC4001E0,8.27,-5.0965567765567766e-05,-7.745787545787534e-06
SC4001E0,8.28,-5.1434432234432236e-05,-7.265934065934054e-06
SC4001E0,8.29,-4.458901098901099e-05,-8.705494505494494e-06
SC4001E0,8.3,-4.449523809523809e-05,-1.0720879120879108e-05
SC4001E0,8.31,-4.674578754578754e-05,-8.129670329670318e-06
SC4001E0,8.32,-4.4682783882783876e-05,-8.897435897435885e-06
SC4001E0,8.33,-5.1715750915750915e-05,-4.674725274725262e-06
SC4001E0,8.34,-4.730842490842491e-05,-6.2102564102563974e-06
SC4001E0,8.35,-5.0121611721611716e-05,-9.185347985347973e-06
SC4001E0,8.36,-4.562051282051282e-05,-8.609523809523798e-06
SC4001E0,8.37,-5.1997069597069593e-05,-1.2928205128205116e-05
SC4001E0,8.38,-4.5526739926739926e-05,-1.3024175824175814e-05
SC4001E0,8.39,-4.909010989010989e-05,-9.473260073260061e-06
SC4001E0,8.4,-4.5057875457875456e-05,-1.3120146520146508e-05
SC4001E0,8.41,-4.9465201465201463e-05,-1.0336996336996324e-05
SC4001E0,8.42,-4.862124542124542e-05,-1.4271794871794859e-05
SC4001E0,8.43,-2.8553846153846154e-05,-1.4367765567765555e-05
SC4001E0,8.44,-6.156190476190476e-05,-1.3791941391941379e-05
SC4001E0,8.45,-6.212454212454212e-05,-1.590329670329669e-05
SC4001E0,8.46,-7.197069597069597e-05,-1.4271794871794859e-05
SC4001E0,8.47,-8.631794871794872e-05,-1.024102564102563e-05
SC4001E0,8.48,-8.772454212454212e-05,-1.3024175824175814e-05
SC4001E0,8.49,-7.759706959706959e-05,-1.3887912087912075e-05
SC4001E0,8.5,-8.144175824175823e-05,-1.5039560439560428e-05
SC4001E0,8.51,-7.637802197802197e-05,-1.5327472527472514e-05
SC4001E0,8.52,-7.440879120879122e-05,-1.590329670329669e-05
SC4001E0,8.53,-7.628424908424908e-05,-1.3983882783882773e-05
SC4001E0,8.54,-7.881611721611722e-05,-1.7918681318681306e-05
SC4001E0,8.55,-7.45025641025641e-05,-1.2736263736263724e-05
SC4001E0,8.56,-6.756336996336996e-05,-1.1968498168498155e-05
SC4001E0,8.57,-7.562783882783883e-05,-1.3504029304029292e-05
SC4001E0,8.58,-7.684688644688644e-05,-6.88205128205127e-06
SC4001E0,8.59,-7.553406593406593e-05,-4.770695970695959e-06
SC4001E0,8.6,-7.534652014652014e-05,-7.5538461538461415e-06
SC4001E0,8.61,-7.478388278388278e-05,-9.473260073260061e-06
SC4001E0,8.62,-7.506520146520147e-05,-2.7553113553113434e-06
SC4001E0,8.63,-6.915750915750915e-05,-3.2351648351648233e-06
SC4001E0,8.64,-6.8407326007326e-05,-7.745787545787534e-06
SC4001E0,8.65,-7.15956043956044e-05,-6.306227106227094e-06
SC4001E0,8.66,-6.934505494505494e-05,-8.417582417582404e-06
SC4001E0,8.67,-6.943882783882782e-05,-8.801465201465189e-06
SC4001E0,8.68,-6.70007326007326e-05,-6.439560439560317e-07
SC4001E0,8.69,-7.215824175824176e-05,-6.2102564102563974e-06
SC4001E0,8.7,-5.3966300366300366e-05,-3.1391941391941272e-06
SC4001E0,8.71,-8.538021978021977e-05,-3.523076923076911e-06
SC4001E0,8.72,-7.853479853479854e-05,-7.84175824175823e-06
SC4001E0,8.73,-0.00010300952380952381,-1.2064468864468853e-05
SC4001E0,8.74,-0.00011454358974358974,-1.1584615384615373e-05
SC4001E0,8.75,-0.00011463736263736264,-2.8512820512820394e-06
SC4001E0,8.76,-0.00011313699633699633,-4.386813186813175e-06
SC4001E0,8.77,-0.00011173040293040293,-1.8915750915750792e-06
SC4001E0,8.78,-0.00011041758241758242,-6.786080586080574e-06
SC4001E0,8.79,-0.00010741684981684981,-3.2351648351648233e-06
SC4001E0,8.8,-0.00010554139194139194,-4.48278388278387e-06
SC4001E0,8.81,-0.00010300952380952381,-1.641025641025518e-07
SC4001E0,8.82,-9.982124542124541e-05,-5.1545787545787424e-06
SC4001E0,8.83,-9.775824175824174e-05,-2.563369963369951e-06
SC4001E0,8.84,-9.363223443223442e-05,-3.619047619047607e-06
SC4001E0,8.85,-9.185054945054944e-05,-3.331135531135519e-06
SC4001E0,8.86,-8.463003663003662e-05,-5.058608058608046e-06
SC4001E0,8.87,-7.853479853479854e-05,-5.058608058608046e-06
SC4001E0,8.88,-6.972014652014651e-05,-8.801465201465189e-06
SC4001E0,8.89,-6.587545787545786e-05,-1.3504029304029292e-05
SC4001E0,8.9,-6.559413919413919e-05,-1.283223443223442e-05
SC4001E0,8.91,-5.7154578754578755e-05,-1.7726739926739917e-05
SC4001E0,8.92,-5.180952380952381e-05,-1.638315018315017e-05
SC4001E0,8.93,-4.815238095238095e-05,-1.1584615384615373e-05
SC4001E0,8.94,-4.8808791208791204e-05,-8.609523809523798e-06
SC4001E0,8.95,-5.0871794871794864e-05,7.41758241758243e-06
SC4001E0,8.96,-4.843369963369963e-05,7.609523809523821e-06
SC4001E0,8.97,-3.9806593406593406e-05,7.993406593406606e-06
SC4001E0,8.98,-3.455531135531135e-05,2.7150183150183276e-06
SC4001E0,8.99,-3.1835897435897435e-05,-2.659340659340647e-06
SC4001E0,9.0,-2.2177289377289375e-05,-7.399267399267277e-07
SC4001E0,9.01,-2.03018315018315e-05,-6.439560439560317e-07
SC4001E0,9.02,-1.3643956043956043e-05,6.03663003663016e-07
SC4001E0,9.03,-6.9860805860805854e-06,4.442490842490855e-06
SC4001E0,9.04,-4.8293040293040295e-06,4.442490842490855e-06
SC4001E0,9.05,-4.2197802197802214e-07,2.2351648351648477e-06
SC4001E0,9.06,1.0783882783882782e-06,3.4827838827838952e-06
SC4001E0,9.07,2.18021978021978e-05,5.114285714285727e-06
SC4001E0,9.08,6.142124542124541e-06,3.578754578754591e-06
SC4001E0,9.09,1.3925274725274725e-05,5.402197802197814e-06
SC4001E0,9.1,1.4300366300366299e-05,5.4981684981685104e-06
SC4001E0,9.11,1.5331868131868133e-05,1.0872527472527486e-05
SC4001E0,9.12,1.6644688644688645e-05,1.125641025641027e-05
SC4001E0,9.13,2.874139194139194e-05,2.9069597069597193e-06
SC4001E0,9.14,2.227106227106227e-05,8.185347985348e-06
SC4001E0,9.15,4.0556776556776554e-05,6.265934065934078e-06
SC4001E0,9.16,6.235897435897436e-06,8.089377289377302e-06
SC4001E0,9.17,1.083076923076923e-05,1.4231501831501845e-05
SC4001E0,9.18,9.7992673992674e-06,1.317582417582419e-05
SC4001E0,9.19,8.58021978021978e-06,1.2791941391941405e-05
SC4001E0,9.2,1.2893772893772893e-05,1.28879120879121e-05
SC4001E0,9.21,1.28e-05,2.162124542124543e-05
SC4001E0,9.22,1.4300366300366299e-05,1.5191208791208804e-05
SC4001E0,9.23,1.2143589743589743e-05,1.28879120879121e-05
SC4001E0,9.24,3.568058608058608e-05,7.41758241758243e-06
SC4001E0,9.25,3.558681318681319e-05,6.073992673992687e-06
SC4001E0,9.26,3.5305494505494504e-05,2.0432234432234555e-06
SC4001E0,9.27,4.655824175824175e-05,-2.600732600732478e-07
SC4001E0,9.28,4.693333333333333e-05,-6.594139194139182e-06
SC4001E0,9.29,4.271355311355311e-05,-3.619047619047607e-06
SC4001E0,9.3,4.383882783882784e-05,-3.9069597069596944e-06
SC4001E0,9.31,4.1400732600732604e-05,5.6901098901099026e-06
SC4001E0,9.32,3.915018315018315e-05,7.513553113553125e-06
SC4001E0,9.33,4.0369230769230764e-05,1.2600000000000013e-05
SC4001E0,9.34,3.971282051282051e-05,2.296483516483518e-05
SC4001E0,9.35,3.736849816849817e-05,1.547912087912089e-05
SC4001E0,9.36,4.111941391941392e-05,1.336776556776558e-05
SC4001E0,9.37,4.177582417582417e-05,5.306227106227118e-06
SC4001E0,9.38,4.637069597069597e-05,1.8512820512820636e-06
SC4001E0,9.39,4.637069597069597e-05,-1.3157509157509035e-06
SC4001E0,9.4,3.1835897435897435e-05,2.1391941391941516e-06
SC4001E0,9.41,4.44014652014652e-05,-1.641025641025518e-07
SC4001E0,9.42,3.746227106227106e-05,1.94725274725276e-06
SC4001E0,9.43,2.8366300366300363e-05,1.0392673992674005e-05
SC4001E0,9.44,3.380512820512821e-05,9.912820512820525e-06
SC4001E0,9.45,3.108571428571429e-05,1.2024175824175837e-05
SC4001E0,9.46,3.4367765567765565e-05,1.077655677655679e-05
SC4001E0,9.47,3.061684981684982e-05,9.33699633699635e-06
SC4001E0,9.48,2.4802930402930403e-05,1.2983882783882796e-05
SC4001E0,9.49,1.6738461538461537e-05,1.2024175824175837e-05
SC4001E0,9.5,1.7676190476190476e-05,1.5575091575091588e-05
SC4001E0,9.51,2.3208791208791208e-05,1.4231501831501845e-05
SC4001E0,9.52,2.273992673992674e-05,1.384761904761906e-05
SC4001E0,9.53,2.170842490842491e-05,8.85714285714287e-06
SC4001E0,9.54,2.067692307692308e-05,4.05860805860807e-06
SC4001E0,9.55,2.3208791208791208e-05,2.5230769230769354e-06
SC4001E0,9.56,1.805128205128205e-05,-2.563369963369951e-06
SC4001E0,9.57,1.7301098901098898e-05,-2.0835164835164718e-06
SC4001E0,9.58,1.6832234432234432e-05,5.402197802197814e-06
SC4001E0,9.59,2.18021978021978e-05,6.8417582417582545e-06
SC4001E0,9.6,1.9926739926739927e-05,6.45787545787547e-06
SC4001E0,9.61,2.6209523809523808e-05,1.403956043956045e-05
SC4001E0,9.62,2.302124542124542e-05,1.125641025641027e-05
SC4001E0,9.63,2.5084249084249082e-05,1.0872527472527486e-05
SC4001E0,9.64,2.236483516483516e-05,1.0680586080586094e-05
SC4001E0,9.65,2.752234432234432e-05,6.649816849816862e-06
SC4001E0,9.66,1.5425641025641025e-05,6.265934065934078e-06
SC4001E0,9.67,1.6738461538461537e-05,8.089377289377302e-06
SC4001E0,9.68,2.0395604395604393e-05,2.5230769230769354e-06
SC4001E0,9.69,1.908278388278388e-05,7.993406593406606e-06
SC4001E0,9.7,1.908278388278388e-05,5.97802197802199e-06
SC4001E0,9.71,2.1989743589743588e-05,4.730402930402943e-06
SC4001E0,9.72,2.7147252747252746e-05,5.4981684981685104e-06
SC4001E0,9.73,2.4615384615384616e-05,1.8512820512820636e-06
SC4001E0,9.74,2.0958241758241757e-05,2.2351648351648477e-06
SC4001E0,9.75,2.077069597069597e-05,3.578754578754591e-06
SC4001E0,9.76,1.7301098901098898e-05,5.97802197802199e-06
SC4001E0,9.77,1.973919413919414e-05,6.169963369963382e-06
SC4001E0,9.78,1.636336996336996e-05,6.361904761904774e-06
SC4001E0,9.79,2.1989743589743588e-05,7.801465201465213e-06
SC4001E0,9.8,1.9457875457875454e-05,5.4981684981685104e-06
SC4001E0,9.81,2.1520879120879118e-05,2.8109890109890236e-06
SC4001E0,9.82,2.405274725274725e-05,-4.520146520146397e-07
SC4001E0,9.83,2.255238095238095e-05,5.01831501831503e-06
SC4001E0,9.84,2.0958241758241757e-05,1.3714285714285837e-06
SC4001E0,9.85,2.3583882783882786e-05,1.0835164835164958e-06
SC4001E0,9.86,2.602197802197802e-05,-2.275457875457863e-06
SC4001E0,9.87,2.3490109890109887e-05,-2.8512820512820394e-06
SC4001E0,9.88,2.4896703296703295e-05,-1.4117216117215996e-06
SC4001E0,9.89,3.7087179487179486e-05,-5.730402930402918e-06
SC4001E0,9.9,3.427399267399267e-05,-1.5076923076922954e-06
SC4001E0,9.91,3.858754578754578e-05,-1.2197802197802074e-06
SC4001E0,9.92,1.5144322344322342e-05,-3.427106227106215e-06
SC4001E0,9.93,3.277362637362637e-05,-5.058608058608046e-06
SC4001E0,9.94,3.0054212454212453e-05,-6.594139194139182e-06
SC4001E0,9.95,1.8895238095238093e-05,-5.1545787545787424e-06
SC4001E0,9.96,2.6209523809523808e-05,-1.8915750915750792e-06
SC4001E0,9.97,3.061684981684982e-05,-6.114285714285702e-06
SC4001E0,9.98,2.7897435897435898e-05,-5.826373626373614e-06
SC4001E0,9.99,3.7743589743589745e-05,-3.331135531135519e-06
SC4001E0,10.0,2.7428571428571425e-05,-1.6036630036629915e-06
SC4001E0,10.01,3.08981684981685e-05,-2.4673992673992548e-06
SC4001E0,10.02,1.983296703296703e-05,-3.9069597069596944e-06
SC4001E0,10.03,2.1895970695970696e-05,-9.318681318681197e-07
SC4001E0,10.04,1.5706959706959707e-05,-2.8512820512820394e-06
SC4001E0,10.05,2.123956043956044e-05,-4.866666666666654e-06
SC4001E0,10.06,2.0864468864468865e-05,2.3311355311355437e-06
SC4001E0,10.07,1.7582417582417584e-05,-7.399267399267277e-07
SC4001E0,10.08,8.861538461538462e-06,-1.7956043956043834e-06
SC4001E0,10.09,1.261245421245421e-05,-3.043223443223431e-06
SC4001E0,10.1,9.893040293040294e-06,-8.358974358974236e-07
SC4001E0,10.11,7.454945054945055e-06,1.6593406593406715e-06
SC4001E0,10.12,1.8426373626373624e-05,-3.043223443223431e-06
SC4001E0,10.13,5.2043956043956044e-06,-9.473260073260061e-06
SC4001E0,10.14,2.1145787545787544e-05,-3.810989010988999e-06
SC4001E0,10.15,-9.846153846153847e-07,-1.475164835164834e-05
SC4001E0,10.16,2.203663003663003e-06,-3.331135531135519e-06
SC4001E0,10.17,-5.954578754578754e-06,-5.44249084249083e-06
SC4001E0,10.18,2.9538461538461533e-06,-6.594139194139182e-06
SC4001E0,10.19,-1.0549450549450548e-05,-5.826373626373614e-06
SC4001E0,10.2,-9.893040293040294e-06,-7.169963369963357e-06
SC4001E0,10.21,-1.2424908424908425e-05,-1.33120879120879e-05
SC4001E0,10.22,-1.2331135531135532e-05,-6.439560439560317e-07
SC4001E0,10.23,4.2197802197802177e-07,-5.826373626373614e-06
SC4001E0,10.24,-4.641758241758242e-06,-5.058608058608046e-06
SC4001E0,10.25,-1.7347985347985347e-06,7.956043956044079e-07
SC4001E0,10.26,6.095238095238093e-07,-6.4981684981684865e-06
SC4001E0,10.27,6.892307692307691e-06,-8.033699633699622e-06
SC4001E0,10.28,-8.673992673992673e-06,-8.417582417582404e-06
SC4001E0,10.29,-4.641758241758242e-06,-1.4175824175824163e-05
SC4001E0,10.3,-6.892307692307693e-06,-2.0835164835164718e-06
SC4001E0,10.31,-4.421391941391941e-05,-4.48278388278387e-06
SC4001E0,10.32,-2.5834432234432233e-05,-7.169963369963357e-06
SC4001E0,10.33,-2.7522344322344324e-05,-9.95311355311354e-06
SC4001E0,10.34,-5.152820512820513e-05,-1.2448351648351636e-05
SC4001E0,10.35,-7.459633699633699e-05,-9.377289377289365e-06
SC4001E0,10.36,-3.999413919413919e-05,-6.786080586080574e-06
SC4001E0,10.37,-5.48102564102564e-05,-7.457875457875446e-06
SC4001E0,10.38,-5.162197802197802e-05,-1.33120879120879e-05
SC4001E0,10.39,-4.655824175824175e-05,-8.129670329670318e-06
SC4001E0,10.4,-3.746227106227106e-05,-1.0528937728937718e-05
SC4001E0,10.41,-4.271355311355311e-05,-9.473260073260061e-06
SC4001E0,10.42,-3.999413919413919e-05,-1.1296703296703285e-05
SC4001E0,10.43,-3.811868131868132e-05,-1.1008791208791196e-05
SC4001E0,10.44,-4.0275457875457875e-05,-5.634432234432222e-06
SC4001E0,10.45,-3.146080586080586e-05,-8.99340659340658e-06
SC4001E0,10.46,-3.455531135531135e-05,-1.641025641025518e-07
SC4001E0,10.47,-2.4615384615384616e-05,-6.439560439560317e-07
SC4001E0,10.48,-2.048937728937729e-05,-6.978021978021966e-06
SC4001E0,10.49,-2.349010989010989e-05,-9.281318681318669e-06
SC4001E0,10.5,-1.908278388278388e-05,-1.2256410256410243e-05
SC4001E0,10.51,-2.695970695970696e-05,-1.0336996336996324e-05
SC4001E0,10.52,-2.6584615384615385e-05,-8.801465201465189e-06
SC4001E0,10.53,-1.8145054945054945e-05,-1.043296703296702e-05
SC4001E0,10.54,-2.0208058608058606e-05,-6.786080586080574e-06
SC4001E0,10.55,-2.077069597069597e-05,-1.4559706959706949e-05
SC4001E0,10.56,-1.2331135531135532e-05,-8.129670329670318e-06
SC4001E0,10.57,-2.123956043956044e-05,-7.937728937728926e-06
SC4001E0,10.58,-1.2143589743589743e-05,-9.95311355311354e-06
SC4001E0,10.59,-1.4487912087912088e-05,-8.99340659340658e-06
SC4001E0,10.6,-1.655091575091575e-05,-3.043223443223431e-06
SC4001E0,10.61,-2.0395604395604393e-05,-6.978021978021966e-06
SC4001E0,10.62,-1.6644688644688645e-05,-7.649816849816838e-06
SC4001E0,10.63,-6.142124542124542e-06,-1.5327472527472514e-05
SC4001E0,10.64,-1.8989010989010988e-05,-1.2928205128205116e-05
SC4001E0,10.65,-1.5331868131868133e-05,-1.1200732600732588e-05
SC4001E0,10.66,-1.7301098901098898e-05,-6.594139194139182e-06
SC4001E0,10.67,-1.1205860805860805e-05,-4.290842490842479e-06
SC4001E0,10.68,-1.261245421245421e-05,-4.0989010989010866e-06
SC4001E0,10.69,-1.0080586080586079e-05,-6.813186813185585e-08
SC4001E0,10.7,-8.861538461538462e-06,-3.2351648351648233e-06
SC4001E0,10.71,-4.547985347985347e-06,-3.619047619047607e-06
SC4001E0,10.72,-4.079120879120879e-06,-2.179487179487167e-06
SC4001E0,10.73,1.1721611721611719e-06,-6.786080586080574e-06
SC4001E0,10.74,1.0783882783882782e-06,-8.358974358974236e-07
SC4001E0,10.75,2.1895970695970696e-05,-6.018315018315006e-06
SC4001E0,10.76,-2.9538461538461537e-06,-4.386813186813175e-06
SC4001E0,10.77,6.048351648351648e-06,-6.114285714285702e-06
SC4001E0,10.78,8.298901098901097e-06,-6.114285714285702e-06
SC4001E0,10.79,1.7394871794871793e-05,-5.44249084249083e-06
SC4001E0,10.8,1.7863736263736263e-05,-8.99340659340658e-06
SC4001E0,10.81,9.7992673992674e-06,-3.715018315018303e-06
SC4001E0,10.82,1.083076923076923e-05,-1.4117216117215996e-06
SC4001E0,10.83,1.852014652014652e-05,-6.813186813185585e-08
SC4001E0,10.84,2.4521611721611717e-05,-3.810989010988999e-06
SC4001E0,10.85,1.6175824175824176e-05,-4.520146520146397e-07
SC4001E0,10.86,1.6550915750915747e-05,3.866666666666679e-06
SC4001E0,10.87,2.2177289377289375e-05,-2.600732600732478e-07
SC4001E0,10.88,2.770989010989011e-05,3.1575091575092805e-07
SC4001E0,10.89,2.5084249084249082e-05,-2.8512820512820394e-06
SC4001E0,10.9,2.7241025641025638e-05,-1.1238095238095116e-06
SC4001E0,10.91,2.6584615384615385e-05,-4.866666666666654e-06
SC4001E0,10.92,2.4427838827838826e-05,-7.745787545787534e-06
SC4001E0,10.93,2.7241025641025638e-05,-3.043223443223431e-06
SC4001E0,10.94,2.874139194139194e-05,-7.169963369963357e-06
SC4001E0,10.95,3.052307692307692e-05,-3.715018315018303e-06
SC4001E0,10.96,2.5365567765567764e-05,-9.473260073260061e-06
SC4001E0,10.97,2.5178021978021977e-05,-1.0624908424908414e-05
SC4001E0,10.98,2.405274725274725e-05,-1.3791941391941379e-05
SC4001E0,10.99,2.5834432234432233e-05,-8.417582417582404e-06
SC4001E0,11.0,2.0489377289377288e-05,-1.0528937728937718e-05
SC4001E0,11.01,2.2177289377289375e-05,-1.0145054945054933e-05
SC4001E0,11.02,2.5834432234432233e-05,-1.619120879120878e-05
SC4001E0,11.03,1.0268131868131866e-05,-1.1296703296703285e-05
SC4001E0,11.04,1.4487912087912088e-05,-1.1776556776556765e-05
SC4001E0,11.05,9.424175824175824e-06,-9.569230769230757e-06
SC4001E0,11.06,1.2893772893772893e-05,-7.265934065934054e-06
SC4001E0,11.07,9.7992673992674e-06,-5.92234432234431e-06
SC4001E0,11.08,1.0080586080586079e-05,-7.361904761904749e-06
SC4001E0,11.09,1.4112820512820512e-05,-6.018315018315006e-06
SC4001E0,11.1,2.3771428571428573e-05,-6.114285714285702e-06
SC4001E0,11.11,1.3175091575091573e-05,-5.3465201465201346e-06
SC4001E0,11.12,1.8238827838827837e-05,-8.705494505494494e-06
SC4001E0,11.13,2.123956043956044e-05,-4.194871794871783e-06
SC4001E0,11.14,2.0489377289377288e-05,-6.2102564102563974e-06
SC4001E0,11.15,2.2646153846153847e-05,-7.937728937728926e-06
SC4001E0,11.16,1.7394871794871793e-05,-1.0816849816849804e-05
SC4001E0,11.17,2.3771428571428573e-05,-7.937728937728926e-06
SC4001E0,11.18,2.6397069597069595e-05,-1.0336996336996324e-05
SC4001E0,11.19,2.0114285714285714e-05,-9.95311355311354e-06
SC4001E0,11.2,2.0583150183150183e-05,-1.0624908424908414e-05
SC4001E0,11.21,2.527179487179487e-05,-9.185347985347973e-06
SC4001E0,11.22,1.6269597069597068e-05,-1.043296703296702e-05
SC4001E0,11.23,4.336996336996337e-05,-1.235238095238094e-05
SC4001E0,11.24,-7.267399267399267e-06,-8.5135531135531e-06
SC4001E0,11.25,-6.4234432234432235e-06,-6.786080586080574e-06
SC4001E0,11.26,-3.446153846153846e-05,-8.609523809523798e-06
SC4001E0,11.27,-5.860805860805861e-06,-7.649816849816838e-06
SC4001E0,11.28,-3.361758241758242e-05,-5.826373626373614e-06
SC4001E0,11.29,-4.102564102564103e-05,-2.3714285714285596e-06
SC4001E0,11.3,-2.405274725274725e-05,-4.48278388278387e-06
SC4001E0,11.31,-3.399267399267399e-05,-6.594139194139182e-06
SC4001E0,11.32,-1.1862271062271063e-05,-6.2102564102563974e-06
SC4001E0,11.33,-3.328937728937729e-06,-4.290842490842479e-06
SC4001E0,11.34,2.592820512820513e-05,-3.043223443223431e-06
SC4001E0,11.35,3.399267399267399e-05,-1.7956043956043834e-06
SC4001E0,11.36,6.521904761904761e-05,-5.44249084249083e-06
SC4001E0,11.37,6.85948717948718e-05,-7.937728937728926e-06
SC4001E0,11.38,7.74095238095238e-05,-4.866666666666654e-06
SC4001E0,11.39,7.215824175824176e-05,-6.690109890109878e-06
SC4001E0,11.4,7.412747252747253e-05,-3.523076923076911e-06
SC4001E0,11.41,7.487765567765568e-05,-9.665201465201453e-06
SC4001E0,11.42,7.29084249084249e-05,-1.3695970695970684e-05
SC4001E0,11.43,7.525274725274725e-05,-1.283223443223442e-05
SC4001E0,11.44,7.750329670329669e-05,-9.95311355311354e-06
SC4001E0,11.45,6.362490842490843e-05,-6.018315018315006e-06
SC4001E0,11.46,5.978021978021978e-05,6.169963369963382e-06
SC4001E0,11.47,5.6310622710622705e-05,8.089377289377302e-06
SC4001E0,11.48,6.38124542124542e-05,8.85714285714287e-06
SC4001E0,11.49,6.324981684981685e-05,5.01831501831503e-06
SC4001E0,11.5,6.062417582417582e-05,-3.523076923076911e-06
SC4001E0,11.51,5.9030036630036626e-05,-3.331135531135519e-06
SC4001E0,11.52,5.874871794871795e-05,-4.578754578754567e-06
SC4001E0,11.53,5.9217582417582416e-05,-4.0989010989010866e-06
SC4001E0,11.54,5.874871794871795e-05,-5.92234432234431e-06
SC4001E0,11.55,6.24996336996337e-05,-5.634432234432222e-06
SC4001E0,11.56,3.4086446886446886e-05,-1.8915750915750792e-06
SC4001E0,11.57,4.458901098901099e-05,-1.0278388278388157e-06
SC4001E0,11.58,4.8339926739926734e-05,1.6593406593406715e-06
SC4001E0,11.59,2.770989010989011e-05,3.770695970695983e-06
SC4001E0,11.6,3.886886446886446e-05,3.962637362637375e-06
SC4001E0,11.61,3.4367765567765565e-05,-3.9069597069596944e-06
SC4001E0,11.62,3.633699633699633e-05,-5.479853479853357e-07
SC4001E0,11.63,3.558681318681319e-05,-3.5604395604394376e-07
SC4001E0,11.64,3.286739926739926e-05,-3.5604395604394376e-07
SC4001E0,11.65,2.977289377289377e-05,2.8109890109890236e-06
SC4001E0,11.66,2.6397069597069595e-05,1.2120146520146533e-05
SC4001E0,11.67,2.3396336996336995e-05,1.6726739926739937e-05
SC4001E0,11.68,2.6865934065934064e-05,1.6150915750915764e-05
SC4001E0,11.69,2.3396336996336995e-05,1.432747252747254e-05
SC4001E0,11.7,1.5425641025641025e-05,9.145054945054958e-06
SC4001E0,11.71,1.1956043956043956e-05,5.01831501831503e-06
SC4001E0,11.72,1.7676190476190476e-05,-2.3714285714285596e-06
SC4001E0,11.73,1.308131868131868e-05,-1.8915750915750792e-06
SC4001E0,11.74,1.0924542124542124e-05,-5.3465201465201346e-06
SC4001E0,11.75,5.954578754578754e-06,-8.033699633699622e-06
SC4001E0,11.76,1.8285714285714282e-06,-4.290842490842479e-06
SC4001E0,11.77,-7.736263736263736e-06,-1.0278388278388157e-06
SC4001E0,11.78,-4.454212454212454e-06,4.11721611721624e-07
SC4001E0,11.79,5.11062271062271e-06,-1.5076923076922954e-06
SC4001E0,11.8,-8.017582417582417e-06,6.99633699633712e-07
SC4001E0,11.81,2.1098901098901096e-06,6.553846153846166e-06
SC4001E0,11.82,-6.798534798534798e-06,4.2505494505494625e-06
SC4001E0,11.83,-1.0268131868131868e-05,7.225641025641038e-06
SC4001E0,11.84,-7.173626373626373e-06,2.1391941391941516e-06
SC4001E0,11.85,-8.298901098901099e-06,3.386813186813199e-06
SC4001E0,11.86,-5.860805860805861e-06,3.386813186813199e-06
SC4001E0,11.87,-3.704029304029304e-06,2.4271062271062394e-06
SC4001E0,11.88,-9.7992673992674e-06,8.089377289377302e-06
SC4001E0,11.89,-7.83003663003663e-06,1.077655677655679e-05
SC4001E0,11.9,-2.10989010989011e-06,1.1736263736263749e-05
SC4001E0,11.91,-3.0476190476190477e-06,4.05860805860807e-06
SC4001E0,11.92,-1.8285714285714286e-06,-4.290842490842479e-06
SC4001E0,11.93,-9.705494505494507e-06,-7.169963369963357e-06
SC4001E0,11.94,-1.7394871794871793e-05,-4.0989010989010866e-06
SC4001E0,11.95,-2.5084249084249082e-05,-2.600732600732478e-07
SC4001E0,11.96,-2.6115750915750916e-05,2.4271062271062394e-06
SC4001E0,11.97,-1.6457142857142855e-05,2.197802197802321e-07
SC4001E0,11.98,-1.2706227106227106e-05,-1.4117216117215996e-06
SC4001E0,11.99,-1.4206593406593406e-05,3.4827838827838952e-06
SC4001E0,12.0,-2.2833699633699634e-05,4.730402930402943e-06
SC4001E0,12.01,-1.5706959706959707e-05,2.8109890109890236e-06
SC4001E0,12.02,-4.641758241758242e-06,-2.8512820512820394e-06
SC4001E0,12.03,-2.770989010989011e-05,-4.770695970695959e-06
SC4001E0,12.04,-2.4615384615384616e-05,-6.813186813185585e-08
SC4001E0,12.05,-2.6209523809523808e-05,-3.043223443223431e-06
SC4001E0,12.06,-2.63032967032967e-05,8.91575091575104e-07
SC4001E0,12.07,-2.8928937728937728e-05,3.0029304029304153e-06
SC4001E0,12.08,-3.0054212454212453e-05,1.8512820512820636e-06
SC4001E0,12.09,-2.9397802197802194e-05,-5.479853479853357e-07
SC4001E0,12.1,-2.3771428571428573e-05,-3.2351648351648233e-06
SC4001E0,12.11,-3.324249084249084e-05,-2.179487179487167e-06
SC4001E0,12.12,-2.9866666666666666e-05,-3.427106227106215e-06
SC4001E0,12.13,-2.592820512820513e-05,-6.88205128205127e-06
SC4001E0,12.14,-2.227106227106227e-05,-1.8915750915750792e-06
SC4001E0,12.15,-2.302124542124542e-05,-3.043223443223431e-06
SC4001E0,12.16,-2.9210256410256407e-05,-3.523076923076911e-06
SC4001E0,12.17,-3.0054212454212453e-05,-2.179487179487167e-06
SC4001E0,12.18,-2.6772161172161172e-05,-3.619047619047607e-06
SC4001E0,12.19,-2.9491575091575092e-05,-4.866666666666654e-06
SC4001E0,12.2,-2.4146520146520143e-05,-5.1545787545787424e-06
SC4001E0,12.21,-3.3430036630036634e-05,-2.0835164835164718e-06
SC4001E0,12.22,-3.1179487179487176e-05,1.1794871794871918e-06
SC4001E0,12.23,-2.6678388278388277e-05,-1.4117216117215996e-06
SC4001E0,12.24,-2.4615384615384616e-05,-6.018315018315006e-06
SC4001E0,12.25,-1.88014652014652e-05,-7.937728937728926e-06
SC4001E0,12.26,-1.5144322344322342e-05,-1.1680586080586069e-05
SC4001E0,12.27,-1.805128205128205e-05,-9.569230769230757e-06
SC4001E0,12.28,-2.2927472527472526e-05,-1.4559706959706949e-05
SC4001E0,12.29,-1.7207326007326006e-05,-1.33120879120879e-05
SC4001E0,12.3,-1.083076923076923e-05,-1.4175824175824163e-05
SC4001E0,12.31,-1.158095238095238e-05,-1.475164835164834e-05
SC4001E0,12.32,-1.5144322344322342e-05,-1.1968498168498155e-05
SC4001E0,12.33,-1.3175091575091573e-05,-1.1296703296703285e-05
SC4001E0,12.34,-9.142857142857142e-06,-9.857142857142845e-06
SC4001E0,12.35,-5.2043956043956044e-06,-1.2928205128205116e-05
SC4001E0,12.36,-8.767765567765568e-06,-1.2160439560439549e-05
SC4001E0,12.37,-1.0361904761904761e-05,-9.665201465201453e-06
SC4001E0,12.38,-1.5425641025641025e-05,-9.665201465201453e-06
SC4001E0,12.39,-1.9364102564102562e-05,-8.99340659340658e-06
SC4001E0,12.4,-2.9866666666666666e-05,-4.290842490842479e-06
SC4001E0,12.41,-3.69934065934066e-05,-5.826373626373614e-06
SC4001E0,12.42,-2.1614652014652013e-05,-7.937728937728926e-06
SC4001E0,12.43,-3.305494505494506e-05,-9.377289377289365e-06
SC4001E0,12.44,-3.202344322344322e-05,-4.386813186813175e-06
SC4001E0,12.45,-3.493040293040292e-05,-4.96263736263735e-06
SC4001E0,12.46,-3.371135531135531e-05,-5.2505494505494385e-06
SC4001E0,12.47,-3.4367765567765565e-05,-3.9069597069596944e-06
SC4001E0,12.48,-2.4427838827838826e-05,1.4673992673992796e-06
SC4001E0,12.49,-2.9960439560439558e-05,2.5230769230769354e-06
SC4001E0,12.5,-3.239853479853479e-05,-3.2351648351648233e-06
SC4001E0,12.51,-2.9491575091575092e-05,-2.600732600732478e-07
SC4001E0,12.52,-3.474285714285714e-05,-5.92234432234431e-06
SC4001E0,12.53,-4.0087912087912085e-05,-2.600732600732478e-07
SC4001E0,12.54,-3.324249084249084e-05,-3.1391941391941272e-06
SC4001E0,12.55,-2.592820512820513e-05,-4.866666666666654e-06
SC4001E0,12.56,-3.1554578754578756e-05,-4.386813186813175e-06
SC4001E0,12.57,-3.239853479853479e-05,-4.48278388278387e-06
SC4001E0,12.58,-2.545934065934066e-05,-3.523076923076911e-06
SC4001E0,12.59,-4.637069597069597e-05,-1.4117216117215996e-06
SC4001E0,12.6,-2.7147252747252746e-05,3.770695970695983e-06
SC4001E0,12.61,-2.1145787545787544e-05,-2.4673992673992548e-06
SC4001E0,12.62,-2.8084981684981685e-05,-2.4673992673992548e-06
SC4001E0,12.63,-2.5834432234432233e-05,-5.44249084249083e-06
SC4001E0,12.64,-1.655091575091575e-05,-3.2351648351648233e-06
SC4001E0,12.65,-2.433406593406593e-05,1.7553113553113676e-06
SC4001E0,12.66,-1.973919413919414e-05,-2.9472527472527347e-06
SC4001E0,12.67,-1.8895238095238093e-05,-8.358974358974236e-07
SC4001E0,12.68,-1.8426373626373624e-05,1.4673992673992796e-06
SC4001E0,12.69,-2.067692307692308e-05,1.8512820512820636e-06
SC4001E0,12.7,-2.0395604395604393e-05,-3.5604395604394376e-07
SC4001E0,12.71,-2.3583882783882786e-05,3.0029304029304153e-06
SC4001E0,12.72,-2.3771428571428573e-05,2.3311355311355437e-06
SC4001E0,12.73,-2.002051282051282e-05,-2.8512820512820394e-06
SC4001E0,12.74,-2.452161172161172e-05,2.7838827838840117e-08
SC4001E0,12.75,-2.6115750915750916e-05,9.875457875457997e-07
SC4001E0,12.76,-2.7803663003663002e-05,9.875457875457997e-07
SC4001E0,12.77,-2.2177289377289375e-05,-1.5076923076922954e-06
SC4001E0,12.78,-2.799120879120879e-05,-1.3157509157509035e-06
SC4001E0,12.79,-2.6678388278388277e-05,-2.0835164835164718e-06
SC4001E0,12.8,-3.108571428571429e-05,3.0029304029304153e-06
SC4001E0,12.81,-3.361758241758242e-05,5.402197802197814e-06
SC4001E0,12.82,-2.9397802197802194e-05,8.85714285714287e-06
SC4001E0,12.83,-2.967912087912088e-05,7.129670329670342e-06
SC4001E0,12.84,-1.598827838827839e-05,3.4827838827838952e-06
SC4001E0,12.85,-3.2304761904761905e-05,7.705494505494519e-06
SC4001E0,12.86,-2.03018315018315e-05,7.513553113553125e-06
SC4001E0,12.87,-1.8895238095238093e-05,4.538461538461551e-06
SC4001E0,12.88,-2.2552380952380952e-05,6.99633699633712e-07
SC4001E0,12.89,-1.4956776556776557e-05,-4.48278388278387e-06
SC4001E0,12.9,-1.4581684981684981e-05,-3.1391941391941272e-06
SC4001E0,12.91,-1.2331135531135532e-05,-1.8915750915750792e-06
SC4001E0,12.92,-1.355018315018315e-05,-8.358974358974236e-07
SC4001E0,12.93,-2.077069597069597e-05,-1.641025641025518e-07
SC4001E0,12.94,-2.3583882783882786e-05,2.9069597069597193e-06
SC4001E0,12.95,-2.452161172161172e-05,1.0584615384615396e-05
SC4001E0,12.96,-2.152087912087912e-05,1.384761904761906e-05
SC4001E0,12.97,-2.2177289377289375e-05,8.85714285714287e-06
SC4001E0,12.98,-1.9551648351648353e-05,8.56923076923078e-06
SC4001E0,12.99,-1.8895238095238093e-05,8.37728937728939e-06
SC4001E0,13.0,-1.748864468864469e-05,5.402197802197814e-06
SC4001E0,13.01,-2.0864468864468865e-05,4.2505494505494625e-06
SC4001E0,13.02,-1.1862271062271063e-05,-1.3157509157509035e-06
SC4001E0,13.03,-1.2518681318681319e-05,-4.48278388278387e-06
SC4001E0,13.04,-6.4234432234432235e-06,3.1575091575092805e-07
SC4001E0,13.05,-1.3925274725274725e-05,6.553846153846166e-06
SC4001E0,13.06,-2.03018315018315e-05,5.402197802197814e-06
SC4001E0,13.07,-1.3175091575091573e-05,6.03663003663016e-07
SC4001E0,13.08,-1.561318681318681e-05,-6.439560439560317e-07
SC4001E0,13.09,-1.1768498168498169e-05,8.91575091575104e-07
SC4001E0,13.1,-1.2987545787545786e-05,-5.634432234432222e-06
SC4001E0,13.11,-1.0080586080586079e-05,-3.043223443223431e-06
SC4001E0,13.12,-5.0168498168498166e-06,-4.770695970695959e-06
SC4001E0,13.13,-2.484981684981685e-06,-4.0029304029303905e-06
SC4001E0,13.14,-4.923076923076923e-06,-7.649816849816838e-06
SC4001E0,13.15,-9.142857142857142e-06,-6.786080586080574e-06
SC4001E0,13.16,6.095238095238093e-07,-8.225641025641014e-06
SC4001E0,13.17,1.1721611721611719e-06,-5.3465201465201346e-06
SC4001E0,13.18,4.735531135531135e-06,-2.0835164835164718e-06
SC4001E0,13.19,5.0168498168498166e-06,-4.674725274725262e-06
SC4001E0,13.2,2.8600732600732594e-06,-7.649816849816838e-06
SC4001E0,13.21,8.298901098901097e-06,-2.7553113553113434e-06
SC4001E0,13.22,2.484981684981685e-06,-3.2351648351648233e-06
SC4001E0,13.23,1.641025641025641e-06,1.4673992673992796e-06
SC4001E0,13.24,2.297435897435897e-06,7.956043956044079e-07
SC4001E0,13.25,1.7347985347985345e-06,2.197802197802321e-07
SC4001E0,13.26,7.548717948717948e-06,2.7150183150183276e-06
SC4001E0,13.27,-4.266666666666667e-06,3.0989010989011114e-06
SC4001E0,13.28,1.1721611721611719e-06,1.1794871794871918e-06
SC4001E0,13.29,7.267399267399267e-06,-1.7956043956043834e-06
SC4001E0,13.3,7.1736263736263725e-06,-4.674725274725262e-06
SC4001E0,13.31,7.923809523809523e-06,-6.690109890109878e-06
SC4001E0,13.32,8.205128205128204e-06,-6.690109890109878e-06
SC4001E0,13.33,4.454212454212454e-06,-5.479853479853357e-07
SC4001E0,13.34,6.235897435897436e-06,2.4271062271062394e-06
SC4001E0,13.35,4.079120879120879e-06,3.1948717948718075e-06
SC4001E0,13.36,8.486446886446886e-06,-9.318681318681197e-07
SC4001E0,13.37,3.516483516483516e-06,-1.6996336996336873e-06
SC4001E0,13.38,1.453479853479853e-06,-3.715018315018303e-06
SC4001E0,13.39,9.236630036630036e-06,-6.439560439560317e-07
SC4001E0,13.4,1.0783882783882782e-06,-1.6036630036629915e-06
SC4001E0,13.41,3.985347985347985e-06,-2.179487179487167e-06
SC4001E0,13.42,6.329670329670329e-06,-5.538461538461527e-06
SC4001E0,13.43,7.548717948717948e-06,-5.058608058608046e-06
SC4001E0,13.44,1.1393406593406593e-05,-1.1488644688644675e-05
SC4001E0,13.45,9.517948717948718e-06,-1.1008791208791196e-05
SC4001E0,13.46,9.236630036630036e-06,-1.1296703296703285e-05
SC4001E0,13.47,1.4394139194139194e-05,-1.0816849816849804e-05
SC4001E0,13.48,1.4863003663003664e-05,-1.0528937728937718e-05
SC4001E0,13.49,1.4394139194139194e-05,-4.674725274725262e-06
SC4001E0,13.5,5.579487179487179e-06,-3.043223443223431e-06
SC4001E0,13.51,8.58021978021978e-06,-5.538461538461527e-06
SC4001E0,13.52,9.7992673992674e-06,-5.2505494505494385e-06
SC4001E0,13.53,-2.2974358974358975e-06,-7.073992673992662e-06
SC4001E0,13.54,-5.157509157509159e-07,-7.5538461538461415e-06
SC4001E0,13.55,-3.2820512820512836e-07,-5.730402930402918e-06
SC4001E0,13.56,2.203663003663003e-06,-3.523076923076911e-06
SC4001E0,13.57,6.798534798534798e-06,-6.594139194139182e-06
SC4001E0,13.58,5.673260073260072e-06,-6.978021978021966e-06
SC4001E0,13.59,4.829304029304029e-06,8.91575091575104e-07
SC4001E0,13.6,7.1736263736263725e-06,1.2380952380953613e-07
SC4001E0,13.61,6.235897435897436e-06,2.6190476190476315e-06
SC4001E0,13.62,1.0268131868131866e-05,3.0029304029304153e-06
SC4001E0,13.63,1.551941391941392e-05,-9.318681318681197e-07
SC4001E0,13.64,5.3919413919413915e-06,1.2754578754578877e-06
SC4001E0,13.65,3.7978021978021975e-06,3.770695970695983e-06
SC4001E0,13.66,1.083076923076923e-05,1.2754578754578877e-06
SC4001E0,13.67,1.561318681318681e-05,8.91575091575104e-07
SC4001E0,13.68,9.049084249084249e-06,5.402197802197814e-06
SC4001E0,13.69,7.83003663003663e-06,3.866666666666679e-06
SC4001E0,13.7,1.2706227106227104e-05,8.85714285714287e-06
SC4001E0,13.71,1.6550915750915747e-05,1.0104761904761916e-05
SC4001E0,13.72,1.0455677655677655e-05,7.033699633699646e-06
SC4001E0,13.73,4.641758241758241e-06,8.185347985348e-06
SC4001E0,13.74,6.892307692307691e-06,9.912820512820525e-06
SC4001E0,13.75,8.392673992673992e-06,1.1352380952380964e-05
SC4001E0,13.76,1.2331135531135532e-05,6.169963369963382e-06
SC4001E0,13.77,1.3737728937728936e-05,5.4981684981685104e-06
SC4001E0,13.78,8.58021978021978e-06,5.4981684981685104e-06
SC4001E0,13.79,1.0643223443223442e-05,5.01831501831503e-06
SC4001E0,13.8,4.547985347985347e-06,2.6190476190476315e-06
SC4001E0,13.81,9.236630036630036e-06,2.3311355311355437e-06
SC4001E0,13.82,6.142124542124541e-06,3.386813186813199e-06
SC4001E0,13.83,6.095238095238093e-07,9.875457875457997e-07
SC4001E0,13.84,2.1098901098901096e-06,3.770695970695983e-06
SC4001E0,13.85,-5.157509157509159e-07,5.402197802197814e-06
SC4001E0,13.86,-4.641758241758242e-06,1.94725274725276e-06
SC4001E0,13.87,-1.1721611721611723e-06,1.4673992673992796e-06
SC4001E0,13.88,-4.266666666666667e-06,1.6593406593406715e-06
SC4001E0,13.89,-7.079853479853479e-06,6.99633699633712e-07
SC4001E0,13.9,2.3443223443223426e-07,4.11721611721624e-07
SC4001E0,13.91,-1.5472527472527474e-06,-1.4117216117215996e-06
SC4001E0,13.92,6.9860805860805854e-06,1.5633699633699754e-06
SC4001E0,13.93,-5.157509157509159e-07,-3.1391941391941272e-06
SC4001E0,13.94,-6.9860805860805854e-06,8.91575091575104e-07
SC4001E0,13.95,-3.0476190476190477e-06,-2.275457875457863e-06
SC4001E0,13.96,-5.954578754578754e-06,-4.290842490842479e-06
SC4001E0,13.97,-8.486446886446886e-06,-5.479853479853357e-07
SC4001E0,13.98,-8.908424908424909e-07,-7.399267399267277e-07
SC4001E0,13.99,-1.4956776556776557e-05,1.5633699633699754e-06
SC4001E0,14.0,-9.330402930402931e-06,-7.399267399267277e-07
SC4001E0,14.01,-1.1393406593406593e-05,2.7838827838840117e-08
SC4001E0,14.02,-1.0361904761904761e-05,-3.5604395604394376e-07
SC4001E0,14.03,-1.1956043956043956e-05,1.94725274725276e-06
SC4001E0,14.04,-5.579487179487179e-06,2.9069597069597193e-06
SC4001E0,14.05,-2.578754578754579e-06,-9.318681318681197e-07
SC4001E0,14.06,-1.8285714285714286e-06,-1.8915750915750792e-06
SC4001E0,14.07,-5.110622710622711e-06,-1.9875457875457753e-06
SC4001E0,14.08,-1.9223443223443225e-06,4.346520146520159e-06
SC4001E0,14.09,6.095238095238093e-07,1.94725274725276e-06
SC4001E0,14.1,3.985347985347985e-06,1.7553113553113676e-06
SC4001E0,14.11,6.517216117216117e-06,-4.48278388278387e-06
SC4001E0,14.12,1.2706227106227104e-05,-8.225641025641014e-06
SC4001E0,14.13,2.6725274725274724e-06,-8.5135531135531e-06
SC4001E0,14.14,2.391208791208791e-06,-1.043296703296702e-05
SC4001E0,14.15,6.517216117216117e-06,-1.33120879120879e-05
SC4001E0,14.16,5.86080586080586e-06,-1.139267399267398e-05
SC4001E0,14.17,1.6738461538461537e-05,-1.0145054945054933e-05
SC4001E0,14.18,5.579487179487179e-06,-8.705494505494494e-06
SC4001E0,14.19,1.4956776556776557e-05,-6.88205128205127e-06
SC4001E0,14.2,3.192967032967033e-05,-1.1200732600732588e-05
SC4001E0,14.21,3.141391941391941e-06,-8.32161172161171e-06
SC4001E0,14.22,6.517216117216117e-06,-6.018315018315006e-06
SC4001E0,14.23,7.736263736263736e-06,-1.139267399267398e-05
SC4001E0,14.24,1.0924542124542124e-05,-1.3887912087912075e-05
SC4001E0,14.25,7.642490842490841e-06,-1.0720879120879108e-05
SC4001E0,14.26,1.547252747252747e-06,-7.169963369963357e-06
SC4001E0,14.27,5.0168498168498166e-06,-9.76117216117215e-06
SC4001E0,14.28,-2.016117216117216e-06,-5.1545787545787424e-06
SC4001E0,14.29,-4.735531135531135e-06,-4.0029304029303905e-06
SC4001E0,14.3,-3.1413919413919416e-06,-2.9472527472527347e-06
SC4001E0,14.31,-6.32967032967033e-06,-3.523076923076911e-06
SC4001E0,14.32,-3.0476190476190477e-06,-7.399267399267277e-07
SC4001E0,14.33,-1.0080586080586079e-05,-6.018315018315006e-06
SC4001E0,14.34,-2.203663003663004e-06,-6.690109890109878e-06
SC4001E0,14.35,-1.265934065934066e-06,-7.84175824175823e-06
SC4001E0,14.36,-4.688644688644705e-08,-7.361904761904749e-06
SC4001E0,14.37,3.235164835164835e-06,-1.1776556776556765e-05
SC4001E0,14.38,3.2820512820512804e-07,-9.665201465201453e-06
SC4001E0,14.39,1.641025641025641e-06,-7.361904761904749e-06
SC4001E0,14.4,-3.891575091575092e-06,-4.0029304029303905e-06
SC4001E0,14.41,1.3597069597069596e-06,-6.2102564102563974e-06
SC4001E0,14.42,3.985347985347985e-06,-3.043223443223431e-06
SC4001E0,14.43,8.298901098901097e-06,-3.427106227106215e-06
SC4001E0,14.44,-7.267399267399267e-06,1.2380952380953613e-07
SC4001E0,14.45,-1.8285714285714286e-06,1.94725274725276e-06
SC4001E0,14.46,4.688644688644672e-08,1.2380952380953613e-07
SC4001E0,14.47,1.0783882783882782e-06,9.875457875457997e-07
SC4001E0,14.48,-1.1018315018315018e-05,3.290842490842503e-06
SC4001E0,14.49,-6.9860805860805854e-06,4.826373626373638e-06
SC4001E0,14.5,-5.673260073260073e-06,4.922344322344335e-06
SC4001E0,14.51,6.095238095238093e-07,3.578754578754591e-06
SC4001E0,14.52,-5.0168498168498166e-06,4.826373626373638e-06
SC4001E0,14.53,-3.797802197802198e-06,8.665201465201478e-06
SC4001E0,14.54,-2.016117216117216e-06,1.096849816849818e-05
SC4001E0,14.55,2.6725274725274724e-06,1.0584615384615396e-05
SC4001E0,14.56,1.4065934065934048e-07,6.649816849816862e-06
SC4001E0,14.57,-7.267399267399267e-06,2.5230769230769354e-06
SC4001E0,14.58,1.8285714285714282e-06,3.866666666666679e-06
SC4001E0,14.59,6.892307692307691e-06,1.2754578754578877e-06
SC4001E0,14.6,7.1736263736263725e-06,4.538461538461551e-06
SC4001E0,14.61,8.486446886446886e-06,2.0432234432234555e-06
SC4001E0,14.62,8.298901098901097e-06,3.4827838827838952e-06
SC4001E0,14.63,9.142857142857142e-06,3.770695970695983e-06
SC4001E0,14.64,-1.9223443223443225e-06,9.624908424908439e-06
SC4001E0,14.65,-8.908424908424909e-07,1.029670329670331e-05
SC4001E0,14.66,1.4065934065934048e-07,5.97802197802199e-06
SC4001E0,14.67,-1.9223443223443225e-06,7.513553113553125e-06
SC4001E0,14.68,1.1721611721611719e-06,9.04908424908426e-06
SC4001E0,14.69,2.5787545787545784e-06,6.361904761904774e-06
SC4001E0,14.7,-8.955311355311355e-06,7.801465201465213e-06
SC4001E0,14.71,-8.673992673992673e-06,7.801465201465213e-06
SC4001E0,14.72,-9.893040293040294e-06,3.6747252747252874e-06
SC4001E0,14.73,-1.083076923076923e-05,2.4271062271062394e-06
SC4001E0,14.74,-9.236630036630037e-06,-1.4117216117215996e-06
SC4001E0,14.75,-1.1956043956043956e-05,1.94725274725276e-06
SC4001E0,14.76,-1.0268131868131868e-05,-4.520146520146397e-07
SC4001E0,14.77,-5.485714285714286e-06,-1.4117216117215996e-06
SC4001E0,14.78,-3.61025641025641e-06,-2.3714285714285596e-06
SC4001E0,14.79,-1.4487912087912088e-05,-5.479853479853357e-07
SC4001E0,14.8,-6.610989010989011e-06,-1.8915750915750792e-06
SC4001E0,14.81,-2.3958974358974356e-05,2.7838827838840117e-08
SC4001E0,14.82,-4.5057875457875456e-05,-1.4117216117215996e-06
SC4001E0,14.83,-6.081172161172161e-05,1.5633699633699754e-06
SC4001E0,14.84,-6.081172161172161e-05,-1.5076923076922954e-06
SC4001E0,14.85,-6.221831501831502e-05,-2.4673992673992548e-06
SC4001E0,14.86,-6.0155311355311355e-05,-3.715018315018303e-06
SC4001E0,14.87,-6.0155311355311355e-05,-3.1391941391941272e-06
SC4001E0,14.88,-5.368498168498169e-05,-6.306227106227094e-06
SC4001E0,14.89,-4.524542124542125e-05,-4.290842490842479e-06
SC4001E0,14.9,-3.6899633699633695e-05,-4.290842490842479e-06
SC4001E0,14.91,-2.5178021978021977e-05,2.4271062271062394e-06
SC4001E0,14.92,-1.6832234432234432e-05,-8.358974358974236e-07
SC4001E0,14.93,-1.0643223443223442e-05,-6.594139194139182e-06
SC4001E0,14.94,6.329670329670329e-06,-7.073992673992662e-06
SC4001E0,14.95,1.1112087912087911e-05,-6.4021978021977896e-06
SC4001E0,14.96,2.170842490842491e-05,-3.9069597069596944e-06
SC4001E0,14.97,2.133333333333333e-05,-4.290842490842479e-06
SC4001E0,14.98,1.8145054945054945e-05,-4.578754578754567e-06
SC4001E0,14.99,2.0395604395604393e-05,-2.275457875457863e-06
SC4001E0,15.0,2.1520879120879118e-05,4.2505494505494625e-06
SC4001E0,15.01,1.3362637362637362e-05,4.2505494505494625e-06
SC4001E0,15.02,1.8426373626373624e-05,1.0872527472527486e-05
SC4001E0,15.03,2.574065934065934e-05,1.0200732600732613e-05
SC4001E0,15.04,2.827252747252747e-05,5.6901098901099026e-06
SC4001E0,15.05,3.53992673992674e-05,8.37728937728939e-06
SC4001E0,15.06,2.8084981684981685e-05,4.538461538461551e-06
SC4001E0,15.07,2.7897435897435898e-05,1.94725274725276e-06
SC4001E0,15.08,2.499047619047619e-05,8.91575091575104e-07
SC4001E0,15.09,2.302124542124542e-05,1.94725274725276e-06
SC4001E0,15.1,2.4802930402930403e-05,3.1948717948718075e-06
SC4001E0,15.11,3.286739926739926e-05,8.91575091575104e-07
SC4001E0,15.12,3.1367032967032966e-05,3.1575091575092805e-07
SC4001E0,15.13,3.5493040293040294e-05,-1.5076923076922954e-06
SC4001E0,15.14,2.846007326007326e-05,-6.439560439560317e-07
SC4001E0,15.15,2.846007326007326e-05,3.1575091575092805e-07
SC4001E0,15.16,2.7334798534798533e-05,-4.520146520146397e-07
SC4001E0,15.17,2.0208058608058606e-05,-4.290842490842479e-06
SC4001E0,15.18,2.0208058608058606e-05,-4.0029304029303905e-06
SC4001E0,15.19,1.88014652014652e-05,-3.715018315018303e-06
SC4001E0,15.2,2.255238095238095e-05,-6.88205128205127e-06
SC4001E0,15.21,1.9645421245421245e-05,-4.674725274725262e-06
SC4001E0,15.22,2.6115750915750916e-05,-6.114285714285702e-06
SC4001E0,15.23,2.1614652014652013e-05,-5.634432234432222e-06
SC4001E0,15.24,1.805128205128205e-05,-4.194871794871783e-06
SC4001E0,15.25,1.5800732600732602e-05,-3.810989010988999e-06
SC4001E0,15.26,1.8426373626373624e-05,-3.619047619047607e-06
SC4001E0,15.27,1.7863736263736263e-05,-4.0029304029303905e-06
SC4001E0,15.28,1.88014652014652e-05,-6.594139194139182e-06
SC4001E0,15.29,2.3958974358974356e-05,-5.1545787545787424e-06
SC4001E0,15.3,2.3583882783882786e-05,-1.7956043956043834e-06
SC4001E0,15.31,1.8613919413919414e-05,-1.2197802197802074e-06
SC4001E0,15.32,2.3208791208791208e-05,-1.2197802197802074e-06
SC4001E0,15.33,2.902271062271062e-05,-2.563369963369951e-06
SC4001E0,15.34,2.902271062271062e-05,-2.3714285714285596e-06
SC4001E0,15.35,3.286739926739926e-05,-2.563369963369951e-06
SC4001E0,15.36,2.0489377289377288e-05,-2.179487179487167e-06
SC4001E0,15.37,2.7241025641025638e-05,-5.826373626373614e-06
SC4001E0,15.38,2.7897435897435898e-05,-6.114285714285702e-06
SC4001E0,15.39,2.2833699633699634e-05,5.0769230769232e-07
SC4001E0,15.4,1.9551648351648353e-05,5.4981684981685104e-06
SC4001E0,15.41,1.4581684981684981e-05,5.97802197802199e-06
SC4001E0,15.42,1.6457142857142855e-05,7.993406593406606e-06
SC4001E0,15.43,1.8613919413919414e-05,3.866666666666679e-06
SC4001E0,15.44,1.4300366300366299e-05,-1.6996336996336873e-06
SC4001E0,15.45,2.077069597069597e-05,-5.92234432234431e-06
SC4001E0,15.46,1.7957509157509158e-05,-7.745787545787534e-06
SC4001E0,15.47,2.2927472527472526e-05,-8.417582417582404e-06
SC4001E0,15.48,2.4896703296703295e-05,-5.826373626373614e-06
SC4001E0,15.49,2.6865934065934064e-05,-7.265934065934054e-06
SC4001E0,15.5,1.7863736263736263e-05,-1.0624908424908414e-05
SC4001E0,15.51,1.7488644688644685e-05,-5.1545787545787424e-06
SC4001E0,15.52,1.9457875457875454e-05,-9.185347985347973e-06
SC4001E0,15.53,2.302124542124542e-05,-1.0816849816849804e-05
SC4001E0,15.54,3.202344322344322e-05,-1.0049084249084237e-05
SC4001E0,15.55,2.1427106227106223e-05,-9.857142857142845e-06
SC4001E0,15.56,2.1145787545787544e-05,-9.377289377289365e-06
SC4001E0,15.57,2.5365567765567764e-05,-1.09128205128205e-05
SC4001E0,15.58,2.574065934065934e-05,-1.0336996336996324e-05
SC4001E0,15.59,1.6550915750915747e-05,-8.033699633699622e-06
SC4001E0,15.6,1.973919413919414e-05,-6.018315018315006e-06
SC4001E0,15.61,1.88014652014652e-05,-7.5538461538461415e-06
SC4001E0,15.62,1.5144322344322342e-05,-7.5538461538461415e-06
SC4001E0,15.63,1.6269597069597068e-05,-1.139267399267398e-05
SC4001E0,15.64,1.7863736263736263e-05,-8.609523809523798e-06
SC4001E0,15.65,1.3456410256410256e-05,-9.089377289377278e-06
SC4001E0,15.66,1.1205860805860805e-05,-6.786080586080574e-06
SC4001E0,15.67,9.893040293040294e-06,-7.265934065934054e-06
SC4001E0,15.68,8.298901098901097e-06,-1.1488644688644675e-05
SC4001E0,15.69,1.3362637362637362e-05,-1.0720879120879108e-05
SC4001E0,15.7,1.1674725274725274e-05,-1.1104761904761892e-05
SC4001E0,15.71,1.908278388278388e-05,-1.09128205128205e-05
SC4001E0,15.72,1.7301098901098898e-05,-9.377289377289365e-06
SC4001E0,15.73,2.6490842490842486e-05,-7.073992673992662e-06
SC4001E0,15.74,9.424175824175824e-06,-9.665201465201453e-06
SC4001E0,15.75,1.8238827838827837e-05,-1.3983882783882773e-05
SC4001E0,15.76,1.3925274725274725e-05,-1.619120879120878e-05
SC4001E0,15.77,1.0643223443223442e-05,-1.1008791208791196e-05
SC4001E0,15.78,7.1736263736263725e-06,-5.2505494505494385e-06
SC4001E0,15.79,3.4227106227106226e-06,1.1794871794871918e-06
SC4001E0,15.8,3.4227106227106226e-06,-5.479853479853357e-07
SC4001E0,15.81,2.484981684981685e-06,-4.0989010989010866e-06
SC4001E0,15.82,7.736263736263736e-06,-2.0835164835164718e-06
SC4001E0,15.83,4.079120879120879e-06,6.99633699633712e-07
SC4001E0,15.84,-6.704761904761905e-06,4.442490842490855e-06
SC4001E0,15.85,-7.267399267399267e-06,4.634432234432247e-06
SC4001E0,15.86,-1.083076923076923e-05,2.2351648351648477e-06
SC4001E0,15.87,-3.516483516483516e-06,-3.331135531135519e-06
SC4001E0,15.88,-8.908424908424909e-07,-5.44249084249083e-06
SC4001E0,15.89,-4.266666666666667e-06,-4.96263736263735e-06
SC4001E0,15.9,1.1721611721611719e-06,-1.9875457875457753e-06
SC4001E0,15.91,-2.3912087912087914e-06,-3.619047619047607e-06
SC4001E0,15.92,2.5787545787545784e-06,-3.715018315018303e-06
SC4001E0,15.93,-9.705494505494507e-06,-1.4117216117215996e-06
SC4001E0,15.94,-4.079120879120879e-06,-1.1238095238095116e-06
SC4001E0,15.95,-4.735531135531135e-06,1.2380952380953613e-07
SC4001E0,15.96,1.453479853479853e-06,-1.9875457875457753e-06
SC4001E0,15.97,1.641025641025641e-06,-3.5604395604394376e-07
SC4001E0,15.98,-9.846153846153847e-07,-3.331135531135519e-06
SC4001E0,15.99,-5.954578754578754e-06,-7.073992673992662e-06
SC4001E0,16.0,7.079853479853479e-06,-7.073992673992662e-06
SC4001E0,16.01,7.36117216117216e-06,-7.169963369963357e-06
SC4001E0,16.02,4.547985347985347e-06,-5.058608058608046e-06
SC4001E0,16.03,-4.688644688644705e-08,-5.92234432234431e-06
SC4001E0,16.04,-2.3443223443223458e-07,-3.1391941391941272e-06
SC4001E0,16.05,5.86080586080586e-06,-6.690109890109878e-06
SC4001E0,16.06,-7.361172161172161e-06,-5.92234432234431e-06
SC4001E0,16.07,-2.484981684981685e-06,-5.44249084249083e-06
SC4001E0,16.08,-1.355018315018315e-05,-8.32161172161171e-06
SC4001E0,16.09,-1.265934065934066e-06,-3.1391941391941272e-06
SC4001E0,16.1,-8.908424908424909e-07,-6.786080586080574e-06
SC4001E0,16.11,-2.86007326007326e-06,-4.290842490842479e-06
SC4001E0,16.12,1.3597069597069596e-06,-3.427106227106215e-06
SC4001E0,16.13,5.0168498168498166e-06,-2.0835164835164718e-06
SC4001E0,16.14,1.7347985347985345e-06,-4.290842490842479e-06
SC4001E0,16.15,1.2331135531135532e-05,-6.594139194139182e-06
SC4001E0,16.16,1.7582417582417584e-05,-3.1391941391941272e-06
SC4001E0,16.17,8.58021978021978e-06,-2.7553113553113434e-06
SC4001E0,16.18,3.6102564102564096e-06,-2.179487179487167e-06
SC4001E0,16.19,9.893040293040294e-06,-5.92234432234431e-06
SC4001E0,16.2,4.172893772893772e-06,-5.538461538461527e-06
SC4001E0,16.21,3.141391941391941e-06,-4.290842490842479e-06
SC4001E0,16.22,-5.954578754578754e-06,-6.594139194139182e-06
SC4001E0,16.23,-3.0476190476190477e-06,-3.2351648351648233e-06
SC4001E0,16.24,-1.2143589743589743e-05,-4.0029304029303905e-06
SC4001E0,16.25,-1.0080586080586079e-05,-5.479853479853357e-07
SC4001E0,16.26,-2.0958241758241757e-05,-3.043223443223431e-06
SC4001E0,16.27,-1.5050549450549449e-05,1.2754578754578877e-06
SC4001E0,16.28,-1.28e-05,7.956043956044079e-07
SC4001E0,16.29,-1.8520146520146522e-05,1.8512820512820636e-06
SC4001E0,16.3,-1.4019047619047618e-05,2.6190476190476315e-06
SC4001E0,16.31,-7.079853479853479e-06,1.4673992673992796e-06
SC4001E0,16.32,-8.673992673992673e-06,2.197802197802321e-07
SC4001E0,16.33,-4.735531135531135e-06,-3.5604395604394376e-07
SC4001E0,16.34,-1.2987545787545786e-05,-1.3157509157509035e-06
SC4001E0,16.35,-1.8285714285714286e-06,-4.96263736263735e-06
SC4001E0,16.36,-2.227106227106227e-05,-5.826373626373614e-06
SC4001E0,16.37,-1.5331868131868133e-05,-4.48278388278387e-06
SC4001E0,16.38,-1.476923076923077e-05,-5.058608058608046e-06
SC4001E0,16.39,-1.7863736263736263e-05,-5.538461538461527e-06
SC4001E0,16.4,-1.8145054945054945e-05,-2.659340659340647e-06
SC4001E0,16.41,-1.9926739926739927e-05,-3.331135531135519e-06
SC4001E0,16.42,-2.8084981684981685e-05,-4.520146520146397e-07
SC4001E0,16.43,-2.0958241758241757e-05,2.197802197802321e-07
SC4001E0,16.44,-1.748864468864469e-05,-3.715018315018303e-06
SC4001E0,16.45,-2.1145787545787544e-05,-1.7956043956043834e-06
SC4001E0,16.46,-1.9270329670329667e-05,-5.479853479853357e-07
SC4001E0,16.47,-1.7676190476190476e-05,-1.6036630036629915e-06
SC4001E0,16.48,-1.8238827838827837e-05,-6.813186813185585e-08
SC4001E0,16.49,-1.5144322344322342e-05,-3.715018315018303e-06
SC4001E0,16.5,-2.3958974358974356e-05,2.0432234432234555e-06
SC4001E0,16.51,-2.123956043956044e-05,2.7150183150183276e-06
SC4001E0,16.52,-2.067692307692308e-05,7.956043956044079e-07
SC4001E0,16.53,-1.5800732600732602e-05,-1.9875457875457753e-06
SC4001E0,16.54,-1.9645421245421245e-05,-3.427106227106215e-06
SC4001E0,16.55,-1.5706959706959707e-05,-2.8512820512820394e-06
SC4001E0,16.56,-1.3643956043956043e-05,-6.813186813185585e-08
SC4001E0,16.57,-1.2706227106227106e-05,-6.813186813185585e-08
SC4001E0,16.58,-3.0476190476190477e-06,-4.520146520146397e-07
SC4001E0,16.59,-5.298168498168498e-06,-4.194871794871783e-06
SC4001E0,16.6,-2.484981684981685e-06,-4.194871794871783e-06
SC4001E0,16.61,-9.893040293040294e-06,-5.1545787545787424e-06
SC4001E0,16.62,6.095238095238093e-07,-8.225641025641014e-06
SC4001E0,16.63,-6.892307692307693e-06,-5.826373626373614e-06
SC4001E0,16.64,-3.1413919413919416e-06,-9.76117216117215e-06
SC4001E0,16.65,-4.079120879120879e-06,-3.043223443223431e-06
SC4001E0,16.66,-3.797802197802198e-06,-3.9069597069596944e-06
SC4001E0,16.67,5.2043956043956044e-06,-1.0278388278388157e-06
SC4001E0,16.68,-4.547985347985347e-06,-7.265934065934054e-06
SC4001E0,16.69,3.2820512820512804e-07,-3.523076923076911e-06
SC4001E0,16.7,-2.3443223443223458e-07,-4.96263736263735e-06
SC4001E0,16.71,-9.846153846153847e-07,-1.6996336996336873e-06
SC4001E0,16.72,5.86080586080586e-06,8.91575091575104e-07
SC4001E0,16.73,-7.032967032967035e-07,4.2505494505494625e-06
SC4001E0,16.74,-5.767032967032966e-06,1.2754578754578877e-06
SC4001E0,16.75,-1.2143589743589743e-05,5.4981684981685104e-06
SC4001E0,16.76,-1.1956043956043956e-05,4.826373626373638e-06
SC4001E0,16.77,-1.3831501831501831e-05,1.0008791208791221e-05
SC4001E0,16.78,-1.5800732600732602e-05,1.2120146520146533e-05
SC4001E0,16.79,-8.392673992673992e-06,6.361904761904774e-06
SC4001E0,16.8,1.1721611721611719e-06,6.8417582417582545e-06
SC4001E0,16.81,-1.4487912087912088e-05,2.4271062271062394e-06
SC4001E0,16.82,-4.454212454212454e-06,4.05860805860807e-06
SC4001E0,16.83,-4.8293040293040295e-06,-1.8915750915750792e-06
SC4001E0,16.84,-1.9223443223443225e-06,2.9069597069597193e-06
SC4001E0,16.85,2.203663003663003e-06,8.91575091575104e-07
SC4001E0,16.86,4.454212454212454e-06,5.210256410256422e-06
SC4001E0,16.87,4.454212454212454e-06,3.290842490842503e-06
SC4001E0,16.88,6.6109890109890105e-06,9.912820512820525e-06
SC4001E0,16.89,4.36043956043956e-06,9.33699633699635e-06
SC4001E0,16.9,1.922344322344322e-06,6.7457875457875576e-06
SC4001E0,16.91,2.391208791208791e-06,1.4673992673992796e-06
SC4001E0,16.92,7.454945054945055e-06,-8.358974358974236e-07
SC4001E0,16.93,1.2659340659340658e-06,1.5633699633699754e-06
SC4001E0,16.94,-2.3443223443223458e-07,-1.5076923076922954e-06
SC4001E0,16.95,1.3597069597069596e-06,2.197802197802321e-07
SC4001E0,16.96,6.517216117216117e-06,3.770695970695983e-06
SC4001E0,16.97,3.516483516483516e-06,4.922344322344335e-06
SC4001E0,16.98,9.705494505494505e-06,6.45787545787547e-06
SC4001E0,16.99,-4.266666666666667e-06,9.528937728937741e-06
SC4001E0,17.0,-3.2820512820512836e-07,5.786080586080598e-06
SC4001E0,17.01,7.03296703296703e-07,2.6190476190476315e-06
SC4001E0,17.02,3.141391941391941e-06,6.45787545787547e-06
SC4001E0,17.03,3.891575091575091e-06,9.875457875457997e-07
SC4001E0,17.04,-4.688644688644705e-08,2.197802197802321e-07
SC4001E0,17.05,-4.923076923076923e-06,1.7553113553113676e-06
SC4001E0,17.06,-6.32967032967033e-06,8.281318681318694e-06
SC4001E0,17.07,-1.8285714285714286e-06,4.2505494505494625e-06
SC4001E0,17.08,-6.704761904761905e-06,4.826373626373638e-06
SC4001E0,17.09,-8.58021978021978e-06,3.962637362637375e-06
SC4001E0,17.1,-5.860805860805861e-06,2.3311355311355437e-06
SC4001E0,17.11,-6.9860805860805854e-06,4.442490842490855e-06
SC4001E0,17.12,-7.970695970695972e-07,2.0432234432234555e-06
SC4001E0,17.13,-1.7347985347985347e-06,-9.318681318681197e-07
SC4001E0,17.14,-2.9538461538461537e-06,-3.9069597069596944e-06
SC4001E0,17.15,-9.986813186813187e-06,3.0989010989011114e-06
SC4001E0,17.16,-2.484981684981685e-06,2.9069597069597193e-06
SC4001E0,17.17,-4.641758241758242e-06,5.0769230769232e-07
SC4001E0,17.18,-7.548717948717948e-06,2.7838827838840117e-08
SC4001E0,17.19,-6.9860805860805854e-06,2.197802197802321e-07
SC4001E0,17.2,-1.1721611721611723e-06,-1.6996336996336873e-06
SC4001E0,17.21,2.297435897435897e-06,-4.290842490842479e-06
SC4001E0,17.22,-1.6457142857142855e-05,-3.619047619047607e-06
SC4001E0,17.23,-1.4206593406593406e-05,-3.043223443223431e-06
SC4001E0,17.24,-1.0361904761904761e-05,-4.290842490842479e-06
SC4001E0,17.25,-1.158095238095238e-05,-5.2505494505494385e-06
SC4001E0,17.26,-3.235164835164835e-06,2.6190476190476315e-06
SC4001E0,17.27,-1.0643223443223442e-05,-1.641025641025518e-07
SC4001E0,17.28,-5.2043956043956044e-06,5.0769230769232e-07
SC4001E0,17.29,4.641758241758241e-06,8.91575091575104e-07
SC4001E0,17.3,1.1862271062271063e-05,-1.6036630036629915e-06
SC4001E0,17.31,1.5144322344322342e-05,-7.399267399267277e-07
SC4001E0,17.32,-9.330402930402931e-06,1.94725274725276e-06
SC4001E0,17.33,-5.157509157509159e-07,6.553846153846166e-06
SC4001E0,17.34,2.297435897435897e-06,1.6593406593406715e-06
SC4001E0,17.35,-7.032967032967035e-07,2.5230769230769354e-06
SC4001E0,17.36,-3.985347985347985e-06,-2.275457875457863e-06
SC4001E0,17.37,-1.6410256410256412e-06,2.7838827838840117e-08
SC4001E0,17.38,2.5787545787545784e-06,-4.194871794871783e-06
SC4001E0,17.39,4.641758241758241e-06,-5.44249084249083e-06
SC4001E0,17.4,-5.157509157509159e-07,-2.179487179487167e-06
SC4001E0,17.41,-3.1413919413919416e-06,-3.331135531135519e-06
SC4001E0,17.42,3.985347985347985e-06,-1.9875457875457753e-06
SC4001E0,17.43,7.454945054945055e-06,-5.2505494505494385e-06
SC4001E0,17.44,5.298168498168498e-06,-9.665201465201453e-06
SC4001E0,17.45,1.1674725274725274e-05,-1.09128205128205e-05
SC4001E0,17.46,1.0361904761904761e-05,-8.897435897435885e-06
SC4001E0,17.47,1.9364102564102562e-05,-4.48278388278387e-06
SC4001E0,17.48,1.870769230769231e-05,-4.290842490842479e-06
SC4001E0,17.49,1.8332600732600732e-05,-4.674725274725262e-06
SC4001E0,17.5,1.355018315018315e-05,-6.2102564102563974e-06
SC4001E0,17.51,1.7676190476190476e-05,-6.2102564102563974e-06
SC4001E0,17.52,1.9645421245421245e-05,-7.073992673992662e-06
SC4001E0,17.53,1.9551648351648353e-05,-6.978021978021966e-06
SC4001E0,17.54,3.516483516483516e-06,-3.043223443223431e-06
SC4001E0,17.55,5.298168498168498e-06,-4.674725274725262e-06
SC4001E0,17.56,4.735531135531135e-06,-1.9875457875457753e-06
SC4001E0,17.57,4.641758241758241e-06,-4.290842490842479e-06
SC4001E0,17.58,3.3289377289377286e-06,-1.3157509157509035e-06
SC4001E0,17.59,2.297435897435897e-06,-1.3157509157509035e-06
SC4001E0,17.6,4.2197802197802177e-07,-4.386813186813175e-06
SC4001E0,17.61,-2.578754578754579e-06,-4.578754578754567e-06
SC4001E0,17.62,7.079853479853479e-06,-5.3465201465201346e-06
SC4001E0,17.63,-1.2331135531135532e-05,-2.600732600732478e-07
SC4001E0,17.64,-2.9538461538461537e-06,1.3714285714285837e-06
SC4001E0,17.65,3.6102564102564096e-06,-4.520146520146397e-07
SC4001E0,17.66,-4.079120879120879e-06,5.0769230769232e-07
SC4001E0,17.67,-5.157509157509159e-07,-1.6996336996336873e-06
SC4001E0,17.68,-1.8285714285714286e-06,-7.399267399267277e-07
SC4001E0,17.69,-7.970695970695972e-07,-8.358974358974236e-07
SC4001E0,17.7,5.11062271062271e-06,1.8512820512820636e-06
SC4001E0,17.71,-3.985347985347985e-06,8.185347985348e-06
SC4001E0,17.72,-3.797802197802198e-06,7.033699633699646e-06
SC4001E0,17.73,-3.328937728937729e-06,4.826373626373638e-06
SC4001E0,17.74,-5.298168498168498e-06,6.45787545787547e-06
SC4001E0,17.75,-5.298168498168498e-06,7.705494505494519e-06
SC4001E0,17.76,-2.203663003663004e-06,9.528937728937741e-06
SC4001E0,17.77,-3.422710622710623e-06,7.225641025641038e-06
SC4001E0,17.78,-1.0455677655677655e-05,8.185347985348e-06
SC4001E0,17.79,-1.0455677655677655e-05,5.402197802197814e-06
SC4001E0,17.8,-7.173626373626373e-06,8.761172161172174e-06
SC4001E0,17.81,-3.1413919413919416e-06,9.04908424908426e-06
SC4001E0,17.82,-2.016117216117216e-06,7.705494505494519e-06
SC4001E0,17.83,-3.797802197802198e-06,7.41758241758243e-06
SC4001E0,17.84,-2.3443223443223458e-07,6.649816849816862e-06
SC4001E0,17.85,-2.9538461538461537e-06,9.816849816849829e-06
SC4001E0,17.86,-6.32967032967033e-06,1.2408058608058621e-05
SC4001E0,17.87,-5.485714285714286e-06,9.145054945054958e-06
SC4001E0,17.88,-1.5144322344322342e-05,1.0200732600732613e-05
SC4001E0,17.89,-9.049084249084249e-06,1.1640293040293054e-05
SC4001E0,17.9,-1.0643223443223442e-05,1.0200732600732613e-05
SC4001E0,17.91,-8.58021978021978e-06,1.0104761904761916e-05
SC4001E0,17.92,-1.204981684981685e-05,8.953113553113564e-06
SC4001E0,17.93,-1.1862271062271063e-05,6.553846153846166e-06
SC4001E0,17.94,-7.361172161172161e-06,5.114285714285727e-06
SC4001E0,17.95,-4.8293040293040295e-06,7.033699633699646e-06
SC4001E0,17.96,-4.923076923076923e-06,3.1948717948718075e-06
SC4001E0,17.97,-4.735531135531135e-06,9.528937728937741e-06
SC4001E0,17.98,-1.0174358974358973e-05,9.241025641025654e-06
SC4001E0,17.99,-3.0476190476190477e-06,6.361904761904774e-06
SC4001E0,18.0,-8.58021978021978e-06,6.93772893772895e-06
SC4001E0,18.01,-8.017582417582417e-06,5.114285714285727e-06
SC4001E0,18.02,-5.673260073260073e-06,6.265934065934078e-06
SC4001E0,18.03,-6.9860805860805854e-06,7.129670329670342e-06
SC4001E0,18.04,-1.083076923076923e-05,4.154578754578767e-06
SC4001E0,18.05,-1.355018315018315e-05,6.553846153846166e-06
SC4001E0,18.06,-9.049084249084249e-06,4.154578754578767e-06
SC4001E0,18.07,-1.308131868131868e-05,6.99633699633712e-07
SC4001E0,18.08,-1.476923076923077e-05,4.538461538461551e-06
SC4001E0,18.09,-1.1205860805860805e-05,1.4673992673992796e-06
SC4001E0,18.1,-7.923809523809523e-06,5.5941391941392065e-06
SC4001E0,18.11,-1.4534798534798535e-06,5.0769230769232e-07
SC4001E0,18.12,-4.688644688644705e-08,1.1794871794871918e-06
SC4001E0,18.13,-6.4234432234432235e-06,2.7150183150183276e-06
SC4001E0,18.14,5.157509157509156e-07,1.6593406593406715e-06
SC4001E0,18.15,6.142124542124541e-06,6.99633699633712e-07
SC4001E0,18.16,3.6102564102564096e-06,-1.4117216117215996e-06
SC4001E0,18.17,3.235164835164835e-06,2.2351648351648477e-06
SC4001E0,18.18,1.453479853479853e-06,3.962637362637375e-06
SC4001E0,18.19,6.095238095238093e-07,4.2505494505494625e-06
SC4001E0,18.2,-4.079120879120879e-06,2.4271062271062394e-06
SC4001E0,18.21,1.0174358974358973e-05,9.720879120879135e-06
SC4001E0,18.22,2.297435897435897e-06,7.993406593406606e-06
SC4001E0,18.23,2.6725274725274724e-06,4.922344322344335e-06
SC4001E0,18.24,-2.3443223443223458e-07,3.1948717948718075e-06
SC4001E0,18.25,9.611721611721611e-06,1.8512820512820636e-06
SC4001E0,18.26,1.6644688644688645e-05,2.5230769230769354e-06
SC4001E0,18.27,-4.688644688644705e-08,4.730402930402943e-06
SC4001E0,18.28,9.7992673992674e-06,-3.5604395604394376e-07
SC4001E0,18.29,1.0455677655677655e-05,2.7838827838840117e-08
SC4001E0,18.3,1.551941391941392e-05,1.5633699633699754e-06
SC4001E0,18.31,1.1487179487179487e-05,4.11721611721624e-07
SC4001E0,18.32,1.204981684981685e-05,5.0769230769232e-07
SC4001E0,18.33,1.2143589743589743e-05,4.11721611721624e-07
SC4001E0,18.34,2.123956043956044e-05,-4.194871794871783e-06
SC4001E0,18.35,1.7863736263736263e-05,-3.1391941391941272e-06
SC4001E0,18.36,1.5706959706959707e-05,-2.659340659340647e-06
SC4001E0,18.37,1.7957509157509158e-05,-4.0029304029303905e-06
SC4001E0,18.38,1.6644688644688645e-05,-2.7553113553113434e-06
SC4001E0,18.39,1.4394139194139194e-05,-2.3714285714285596e-06
SC4001E0,18.4,1.852014652014652e-05,-3.619047619047607e-06
SC4001E0,18.41,1.9457875457875454e-05,-6.2102564102563974e-06
SC4001E0,18.42,1.2893772893772893e-05,-6.786080586080574e-06
SC4001E0,18.43,1.3831501831501831e-05,-6.2102564102563974e-06
SC4001E0,18.44,1.2518681318681319e-05,-2.7553113553113434e-06
SC4001E0,18.45,7.642490842490841e-06,-6.594139194139182e-06
SC4001E0,18.46,7.36117216117216e-06,-9.318681318681197e-07
SC4001E0,18.47,6.235897435897436e-06,-6.439560439560317e-07
SC4001E0,18.48,1.0643223443223442e-05,2.5230769230769354e-06
SC4001E0,18.49,4.266666666666667e-06,-2.9472527472527347e-06
SC4001E0,18.5,-4.360439560439561e-06,-8.358974358974236e-07
SC4001E0,18.51,-5.391941391941392e-06,-1.9875457875457753e-06
SC4001E0,18.52,-8.017582417582417e-06,-5.2505494505494385e-06
SC4001E0,18.53,-9.330402930402931e-06,-4.674725274725262e-06
SC4001E0,18.54,1.453479853479853e-06,-4.0989010989010866e-06
SC4001E0,18.55,2.9538461538461533e-06,-7.937728937728926e-06
SC4001E0,18.56,1.0924542124542124e-05,-1.1680586080586069e-05
SC4001E0,18.57,7.970695970695969e-07,-6.018315018315006e-06
SC4001E0,18.58,-8.861538461538462e-06,-4.194871794871783e-06
SC4001E0,18.59,-9.517948717948718e-06,1.3714285714285837e-06
SC4001E0,18.6,3.141391941391941e-06,5.114285714285727e-06
SC4001E0,18.61,-7.173626373626373e-06,5.97802197802199e-06
SC4001E0,18.62,4.688644688644672e-08,-3.523076923076911e-06
SC4001E0,18.63,-6.235897435897436e-06,-5.2505494505494385e-06
SC4001E0,18.64,1.598827838827839e-05,-8.99340659340658e-06
SC4001E0,18.65,-3.821245421245421e-05,-1.0049084249084237e-05
SC4001E0,18.66,-4.8339926739926734e-05,-8.897435897435885e-06
SC4001E0,18.67,-6.193699633699633e-05,-9.857142857142845e-06
SC4001E0,18.68,-7.056410256410257e-05,-5.826373626373614e-06
SC4001E0,18.69,-7.084542124542125e-05,-8.033699633699622e-06
SC4001E0,18.7,-6.962637362637361e-05,-6.594139194139182e-06
SC4001E0,18.71,-6.324981684981685e-05,-7.169963369963357e-06
SC4001E0,18.72,-6.024908424908424e-05,-6.88205128205127e-06
SC4001E0,18.73,-5.04029304029304e-05,-4.866666666666654e-06
SC4001E0,18.74,-3.5493040293040294e-05,-5.730402930402918e-06
SC4001E0,18.75,-2.002051282051282e-05,-2.9472527472527347e-06
SC4001E0,18.76,-2.002051282051282e-05,-2.659340659340647e-06
SC4001E0,18.77,-9.236630036630037e-06,-3.2351648351648233e-06
SC4001E0,18.78,-1.5425641025641025e-05,-2.179487179487167e-06
SC4001E0,18.79,-1.0549450549450548e-05,-6.813186813185585e-08
SC4001E0,18.8,-7.970695970695972e-07,-2.600732600732478e-07
SC4001E0,18.81,4.547985347985347e-06,-2.563369963369951e-06
SC4001E0,18.82,6.892307692307691e-06,-3.619047619047607e-06
SC4001E0,18.83,1.0361904761904761e-05,1.5633699633699754e-06
SC4001E0,18.84,6.329670329670329e-06,1.0835164835164958e-06
SC4001E0,18.85,9.330402930402931e-06,9.33699633699635e-06
SC4001E0,18.86,8.673992673992673e-06,1.144835164835166e-05
SC4001E0,18.87,2.5787545787545784e-06,1.0104761904761916e-05
SC4001E0,18.88,5.3919413919413915e-06,1.1832234432234445e-05
SC4001E0,18.89,-7.548717948717948e-06,8.761172161172174e-06
SC4001E0,18.9,-7.970695970695972e-07,8.85714285714287e-06
SC4001E0,18.91,-1.4065934065934083e-07,6.169963369963382e-06
SC4001E0,18.92,1.453479853479853e-06,5.210256410256422e-06
SC4001E0,18.93,-7.267399267399267e-06,1.2754578754578877e-06
SC4001E0,18.94,-6.142124542124542e-06,-6.439560439560317e-07
SC4001E0,18.95,8.017582417582417e-06,-5.479853479853357e-07
SC4001E0,18.96,-1.2331135531135532e-05,3.578754578754591e-06
SC4001E0,18.97,-1.0736996336996337e-05,1.5633699633699754e-06
SC4001E0,18.98,-8.908424908424909e-07,9.875457875457997e-07
SC4001E0,18.99,-7.736263736263736e-06,-1.2197802197802074e-06
SC4001E0,19.0,-3.891575091575092e-06,3.962637362637375e-06
SC4001E0,19.01,-3.704029304029304e-06,6.03663003663016e-07
SC4001E0,19.02,-5.2043956043956044e-06,5.0769230769232e-07
SC4001E0,19.03,1.0924542124542124e-05,2.7838827838840117e-08
SC4001E0,19.04,6.798534798534798e-06,2.1391941391941516e-06
SC4001E0,19.05,1.0361904761904761e-05,3.578754578754591e-06
SC4001E0,19.06,1.2893772893772893e-05,7.033699633699646e-06
SC4001E0,19.07,-3.235164835164835e-06,6.169963369963382e-06
SC4001E0,19.08,-2.3443223443223458e-07,3.4827838827838952e-06
SC4001E0,19.09,4.454212454212454e-06,2.7150183150183276e-06
SC4001E0,19.1,1.4769230769230768e-05,-3.715018315018303e-06
SC4001E0,19.11,6.6109890109890105e-06,-1.9875457875457753e-06
SC4001E0,19.12,1.0924542124542124e-05,-4.520146520146397e-07
SC4001E0,19.13,1.7347985347985345e-06,4.634432234432247e-06
SC4001E0,19.14,1.1205860805860805e-05,-8.358974358974236e-07
SC4001E0,19.15,6.4234432234432235e-06,-2.179487179487167e-06
SC4001E0,19.16,2.3443223443223426e-07,-1.5076923076922954e-06
SC4001E0,19.17,-2.3912087912087914e-06,-4.520146520146397e-07
SC4001E0,19.18,4.829304029304029e-06,5.0769230769232e-07
SC4001E0,19.19,1.4065934065934048e-07,-1.6036630036629915e-06
SC4001E0,19.2,7.454945054945055e-06,-1.0278388278388157e-06
SC4001E0,19.21,9.236630036630036e-06,-1.7956043956043834e-06
SC4001E0,19.22,1.0924542124542124e-05,2.1391941391941516e-06
SC4001E0,19.23,4.36043956043956e-06,3.578754578754591e-06
SC4001E0,19.24,1.0174358974358973e-05,4.634432234432247e-06
SC4001E0,19.25,1.6550915750915747e-05,2.4271062271062394e-06
SC4001E0,19.26,1.8989010989010988e-05,-6.813186813185585e-08
SC4001E0,19.27,1.083076923076923e-05,2.1391941391941516e-06
SC4001E0,19.28,9.705494505494505e-06,2.6190476190476315e-06
SC4001E0,19.29,2.8084981684981685e-05,-7.399267399267277e-07
SC4001E0,19.3,4.172893772893772e-06,-1.5076923076922954e-06
SC4001E0,19.31,5.298168498168498e-06,-5.058608058608046e-06
SC4001E0,19.32,2.4427838827838826e-05,-3.810989010988999e-06
SC4001E0,19.33,9.611721611721611e-06,-7.457875457875446e-06
SC4001E0,19.34,1.1299633699633698e-05,-7.073992673992662e-06
SC4001E0,19.35,1.0549450549450548e-05,-6.114285714285702e-06
SC4001E0,19.36,1.0268131868131866e-05,-4.866666666666654e-06
SC4001E0,19.37,1.3737728937728936e-05,-3.331135531135519e-06
SC4001E0,19.38,1.9270329670329667e-05,2.6190476190476315e-06
SC4001E0,19.39,2.4427838827838826e-05,1.4673992673992796e-06
SC4001E0,19.4,1.870769230769231e-05,-1.641025641025518e-07
SC4001E0,19.41,1.9551648351648353e-05,-6.439560439560317e-07
SC4001E0,19.42,1.2518681318681319e-05,-2.0835164835164718e-06
SC4001E0,19.43,9.330402930402931e-06,-6.439560439560317e-07
SC4001E0,19.44,-6.142124542124542e-06,3.4827838827838952e-06
SC4001E0,19.45,-9.611721611721611e-06,2.7150183150183276e-06
SC4001E0,19.46,-2.2974358974358975e-06,3.0029304029304153e-06
SC4001E0,19.47,-5.359120879120879e-05,7.129670329670342e-06
SC4001E0,19.48,-5.462271062271062e-05,4.05860805860807e-06
SC4001E0,19.49,-6.446886446886446e-05,4.2505494505494625e-06
SC4001E0,19.5,-6.371868131868131e-05,5.306227106227118e-06
SC4001E0,19.51,-6.409377289377289e-05,8.089377289377302e-06
SC4001E0,19.52,-6.287472527472527e-05,4.922344322344335e-06
SC4001E0,19.53,-5.771721611721611e-05,2.2351648351648477e-06
SC4001E0,19.54,-4.355750915750916e-05,2.197802197802321e-07
SC4001E0,19.55,-2.846007326007326e-05,3.770695970695983e-06
SC4001E0,19.56,-1.5331868131868133e-05,4.05860805860807e-06
SC4001E0,19.57,-2.03018315018315e-05,5.6901098901099026e-06
SC4001E0,19.58,-1.1112087912087911e-05,5.01831501831503e-06
SC4001E0,19.59,-7.173626373626373e-06,6.649816849816862e-06
SC4001E0,19.6,-1.4581684981684981e-05,4.154578754578767e-06
SC4001E0,19.61,5.157509157509156e-07,3.0989010989011114e-06
SC4001E0,19.62,1.204981684981685e-05,-1.1238095238095116e-06
SC4001E0,19.63,6.704761904761905e-06,-4.520146520146397e-07
SC4001E0,19.64,1.2237362637362637e-05,-2.9472527472527347e-06
SC4001E0,19.65,1.6457142857142855e-05,-1.641025641025518e-07
SC4001E0,19.66,9.142857142857142e-06,6.073992673992687e-06
SC4001E0,19.67,1.7582417582417584e-05,3.1948717948718075e-06
SC4001E0,19.68,1.6457142857142855e-05,6.361904761904774e-06
SC4001E0,19.69,2.592820512820513e-05,8.56923076923078e-06
SC4001E0,19.7,2.6678388278388277e-05,7.321611721611734e-06
SC4001E0,19.71,2.949157509157509e-05,4.826373626373638e-06
SC4001E0,19.72,1.551941391941392e-05,7.609523809523821e-06
SC4001E0,19.73,1.308131868131868e-05,5.114285714285727e-06
SC4001E0,19.74,2.2833699633699634e-05,4.05860805860807e-06
SC4001E0,19.75,2.4896703296703295e-05,5.0769230769232e-07
SC4001E0,19.76,1.7676190476190476e-05,-4.0989010989010866e-06
SC4001E0,19.77,1.7676190476190476e-05,-5.479853479853357e-07
SC4001E0,19.78,2.3583882783882786e-05,-5.058608058608046e-06
SC4001E0,19.79,2.499047619047619e-05,5.0769230769232e-07
SC4001E0,19.8,3.296117216117216e-05,-1.4117216117215996e-06
SC4001E0,19.81,2.799120879120879e-05,3.4827838827838952e-06
SC4001E0,19.82,2.9585347985347984e-05,1.8512820512820636e-06
SC4001E0,19.83,2.9304029304029302e-05,3.1948717948718075e-06
SC4001E0,19.84,2.8084981684981685e-05,4.826373626373638e-06
SC4001E0,19.85,3.2117216117216114e-05,4.826373626373638e-06
SC4001E0,19.86,5.096556776556776e-05,8.91575091575104e-07
SC4001E0,19.87,2.5834432234432233e-05,3.866666666666679e-06
SC4001E0,19.88,3.502417582417582e-05,1.94725274725276e-06
SC4001E0,19.89,3.296117216117216e-05,7.956043956044079e-07
SC4001E0,19.9,3.764981684981685e-05,-1.641025641025518e-07
SC4001E0,19.91,4.3745054945054944e-05,1.94725274725276e-06
SC4001E0,19.92,3.380512820512821e-05,6.99633699633712e-07
SC4001E0,19.93,3.764981684981685e-05,2.197802197802321e-07
SC4001E0,19.94,2.705347985347985e-05,5.882051282051295e-06
SC4001E0,19.95,3.2586080586080583e-05,3.0989010989011114e-06
